General parameters:
Start time: 2023              8             21             14             42       39.55061
Finish time: 2023              8             21             14             48       33.85354
Dwell time (ms): 3000.000000
Source chamber pressure: 2.00e+3
Differential chamber pressure: 7.98e-07
Sample chamber pressure: 3.84e-08
Example position (nm): -3708701.652280,225457.954907,-1000000.000000
Rotation angle (udeg): 72499810.000000
==========
Instrument status: 
0:Data Directory:/icon/data/2023_08_MoS2_5um_hbn_sub/
1:Sample:MoS2
2:Comments:no
3:PinholePlate:#C13
4:z_Zero:4200
5:Operator:djw77/nav31/kw570
==========
zscan inputs: 
z_sep:50000
z_range:200000 -5000000
data_path:/icon/data/2023_08_MoS2_5um_hbn_sub/
example_pos:-3708701.6523      225457.95491          -1000000
N_dwell:200
sampling_period:15
make_plots:0
m1:0.98976
m2:-0.0073571
==========
Detector params:
Sampling period (ms): 15.000000
N dwell: 200.000000
Filament current (A): 1.540000
Filament emission (mA): 1.741806
Solenoid current (A): NaN
Solenoid shim current (A): NaN
Lens params:
0  685
1  300
2  125
3      -0.002
4       -0.01
5       0.012
6         0.8
7         2.1
8         2.8
9  3000
10  1450
11         0.85
12   0
==========
Data:
z(nm),I(A)
200000,4.198e-11,
100000,4.2184e-11,
0,4.2266e-11,
-100000,4.1783e-11,
-200000,4.3098e-11,
-300000,4.3376e-11,
-400000,4.1684e-11,
-500000,4.3932e-11,
-600000,4.4384e-11,
-700000,4.472e-11,
-800000,4.5982e-11,
-900000,4.6203e-11,
-1000000,4.6695e-11,
-1100000,4.709e-11,
-1200000,4.7191e-11,
-1300000,4.6921e-11,
-1400000,4.7411e-11,
-1500000,4.8165e-11,
-1600000,4.8218e-11,
-1700000,4.8111e-11,
-1800000,4.6926e-11,
-1900000,4.8677e-11,
-2000000,4.8093e-11,
-2100000,4.8924e-11,
-2200000,4.7089e-11,
-2300000,4.7686e-11,
-2400000,4.7852e-11,
-2500000,4.6896e-11,
-2600000,4.6688e-11,
-2700000,4.5731e-11,
-2800000,4.522e-11,
-2900000,4.5174e-11,
-3000000,4.4663e-11,
-3100000,4.3602e-11,
-3200000,4.2598e-11,
-3300000,4.1885e-11,
-3400000,4.1171e-11,
-3500000,4.0117e-11,
-3600000,4.0267e-11,
-3700000,3.9515e-11,
-3800000,3.8865e-11,
-3900000,3.8007e-11,
-4000000,3.7569e-11,
-4100000,3.6677e-11,
-4200000,3.5528e-11,
-4300000,3.4803e-11,
-4400000,3.4203e-11,
-4500000,3.3364e-11,
-4600000,3.2192e-11,
-4700000,3.1785e-11,
-4800000,3.0972e-11,
-4900000,3.1026e-11,
-5000000,2.9344e-11,
-4950000,3.08e-11,
-4850000,3.0432e-11,
-4750000,3.2259e-11,
-4650000,3.2089e-11,
-4550000,3.2647e-11,
-4450000,3.4076e-11,
-4350000,3.4379e-11,
-4250000,3.5041e-11,
-4150000,3.59e-11,
-4050000,3.6498e-11,
-3950000,3.7033e-11,
-3850000,3.7345e-11,
-3750000,3.8666e-11,
-3650000,3.9101e-11,
-3550000,4.0338e-11,
-3450000,4.0986e-11,
-3350000,4.3359e-11,
-3250000,4.2019e-11,
-3150000,4.3223e-11,
-3050000,4.3846e-11,
-2950000,4.4605e-11,
-2850000,4.5744e-11,
-2750000,4.576e-11,
-2650000,4.6738e-11,
-2550000,4.5999e-11,
-2450000,4.7006e-11,
-2350000,4.659e-11,
-2250000,4.7749e-11,
-2150000,4.823e-11,
-2050000,4.8642e-11,
-1950000,4.8178e-11,
-1850000,5.0016e-11,
-1750000,4.8942e-11,
-1650000,4.7998e-11,
-1550000,4.8922e-11,
-1450000,4.7756e-11,
-1350000,4.7066e-11,
-1250000,4.8345e-11,
-1150000,4.804e-11,
-1050000,4.6745e-11,
-950000,4.6936e-11,
-850000,4.5326e-11,
-750000,4.4328e-11,
-650000,4.5401e-11,
-550000,4.468e-11,
-450000,4.4562e-11,
-350000,4.3497e-11,
-250000,4.317e-11,
-150000,4.1765e-11,
-50000,4.2752e-11,
50000,4.2362e-11,
150000,4.214e-11,
