General parameters:
Start time: 2023              8             17             17             23       0.387848
Finish time: 2023              8             17             17             31       9.613355
Dwell time (ms): 3750.000000
Source chamber pressure: 2.00e+3
Differential chamber pressure: 7.89e-07
Sample chamber pressure: 3.84e-08
Example position (nm): -3487000.000000,275000.000000,-1000000.000000
Rotation angle (udeg): 90000045.000000
==========
Instrument status: 
0:Data Directory:/icon/data/2023_08_MoS2_5um_hbn_sub/
1:Sample:MoS2
2:Comments:no
3:PinholePlate:#C13
4:z_Zero:4200
5:Operator:djw77/nav31/kw570
==========
zscan inputs: 
z_sep:50000
z_range:500000 -5000000
data_path:/icon/data/2023_08_MoS2_5um_hbn_sub/
example_pos:-3487000   275000 -1000000
N_dwell:250
sampling_period:15
make_plots:1
m1:0.98976
m2:-0.0073571
==========
Detector params:
Sampling period (ms): 15.000000
N dwell: 250.000000
Filament current (A): 1.540000
Filament emission (mA): 1.649466
Solenoid current (A): NaN
Solenoid shim current (A): NaN
Lens params:
0  685
1  300
2  125
3      -0.002
4       -0.01
5       0.012
6         0.8
7         2.1
8         2.8
9  3000
10  1450
11         0.85
12   0
==========
Data:
z(nm),I(A)
500000,4.156e-11,
400000,4.4341e-11,
300000,5.0545e-11,
200000,6.0023e-11,
100000,5.6795e-11,
0,5.2479e-11,
-100000,4.8308e-11,
-200000,4.6497e-11,
-300000,4.2682e-11,
-400000,4.1855e-11,
-500000,4.2553e-11,
-600000,4.5562e-11,
-700000,5.5536e-11,
-800000,7.4468e-11,
-900000,9.9017e-11,
-1000000,1.0375e-10,
-1100000,9.129e-11,
-1200000,7.0374e-11,
-1300000,5.5962e-11,
-1400000,4.8044e-11,
-1500000,4.3639e-11,
-1600000,4.1401e-11,
-1700000,3.9719e-11,
-1800000,3.9762e-11,
-1900000,3.8856e-11,
-2000000,3.8222e-11,
-2100000,3.8878e-11,
-2200000,4.043e-11,
-2300000,4.3561e-11,
-2400000,4.8467e-11,
-2500000,5.1231e-11,
-2600000,4.9776e-11,
-2700000,4.696e-11,
-2800000,4.0665e-11,
-2900000,3.5752e-11,
-3000000,3.4482e-11,
-3100000,3.3002e-11,
-3200000,3.2464e-11,
-3300000,3.3934e-11,
-3400000,3.4889e-11,
-3500000,3.4279e-11,
-3600000,3.3639e-11,
-3700000,3.2788e-11,
-3800000,3.1137e-11,
-3900000,2.9269e-11,
-4000000,2.7383e-11,
-4100000,2.6729e-11,
-4200000,2.5654e-11,
-4300000,2.4452e-11,
-4400000,2.4113e-11,
-4500000,2.4117e-11,
-4600000,2.3511e-11,
-4700000,2.2997e-11,
-4800000,2.231e-11,
-4900000,2.2477e-11,
-5000000,2.1548e-11,
-4950000,2.1734e-11,
-4850000,2.2023e-11,
-4750000,2.31e-11,
-4650000,2.3136e-11,
-4550000,2.3712e-11,
-4450000,2.3682e-11,
-4350000,2.4534e-11,
-4250000,2.5378e-11,
-4150000,2.5944e-11,
-4050000,2.7063e-11,
-3950000,2.7752e-11,
-3850000,2.9268e-11,
-3750000,3.1167e-11,
-3650000,3.2464e-11,
-3550000,3.3936e-11,
-3450000,3.3923e-11,
-3350000,3.4227e-11,
-3250000,3.3056e-11,
-3150000,3.2319e-11,
-3050000,3.2566e-11,
-2950000,3.3174e-11,
-2850000,3.7677e-11,
-2750000,4.2985e-11,
-2650000,4.9264e-11,
-2550000,5.095e-11,
-2450000,5.1671e-11,
-2350000,4.6926e-11,
-2250000,4.2574e-11,
-2150000,3.9759e-11,
-2050000,3.8907e-11,
-1950000,3.9352e-11,
-1850000,3.9042e-11,
-1750000,3.9665e-11,
-1650000,4.0574e-11,
-1550000,4.2266e-11,
-1450000,4.4889e-11,
-1350000,4.9646e-11,
-1250000,5.9688e-11,
-1150000,7.6912e-11,
-1050000,9.708e-11,
-950000,1.0296e-10,
-850000,9.0254e-11,
-750000,6.461e-11,
-650000,5.0976e-11,
-550000,4.385e-11,
-450000,4.1624e-11,
-350000,4.2024e-11,
-250000,4.4909e-11,
-150000,4.6335e-11,
-50000,4.9344e-11,
50000,5.4161e-11,
150000,5.9697e-11,
250000,5.7457e-11,
350000,4.797e-11,
450000,4.3829e-11,
