General parameters:
Start time: 2023              8             18             13             30       9.997068
Finish time: 2023              8             18             13             36       9.455708
Dwell time (ms): 3000.000000
Source chamber pressure: 2.00e+3
Differential chamber pressure: 7.91e-07
Sample chamber pressure: 3.88e-08
Example position (nm): -3842504.278144,146568.923579,-1000000.000000
Rotation angle (udeg): 65000260.000000
==========
Instrument status: 
0:Data Directory:/icon/data/2023_08_MoS2_5um_hbn_sub/
1:Sample:MoS2
2:Comments:no
3:PinholePlate:#C13
4:z_Zero:4200
5:Operator:djw77/nav31/kw570
==========
zscan inputs: 
z_sep:50000
z_range:200000 -5000000
data_path:/icon/data/2023_08_MoS2_5um_hbn_sub/
example_pos:-3842504.2781      146568.92358          -1000000
N_dwell:200
sampling_period:15
make_plots:1
m1:0.98976
m2:-0.0073571
==========
Detector params:
Sampling period (ms): 15.000000
N dwell: 200.000000
Filament current (A): 1.540000
Filament emission (mA): 1.672722
Solenoid current (A): NaN
Solenoid shim current (A): NaN
Lens params:
0  685
1  300
2  125
3      -0.002
4       -0.01
5       0.012
6         0.8
7         2.1
8         2.8
9  3000
10  1450
11         0.85
12   0
==========
Data:
z(nm),I(A)
200000,8.2241e-11,
100000,7.8555e-11,
0,7.0278e-11,
-100000,6.3274e-11,
-200000,5.7343e-11,
-300000,5.3216e-11,
-400000,5.0333e-11,
-500000,4.8254e-11,
-600000,5.1483e-11,
-700000,6.0137e-11,
-800000,8.0279e-11,
-900000,1.0255e-10,
-1000000,1.1807e-10,
-1100000,1.1677e-10,
-1200000,1.0023e-10,
-1300000,7.7517e-11,
-1400000,6.4266e-11,
-1500000,5.9667e-11,
-1600000,6.0759e-11,
-1700000,6.8225e-11,
-1800000,7.7587e-11,
-1900000,8.2538e-11,
-2000000,7.9241e-11,
-2100000,7.1872e-11,
-2200000,6.0133e-11,
-2300000,5.342e-11,
-2400000,5.057e-11,
-2500000,5.3362e-11,
-2600000,6.3088e-11,
-2700000,7.5463e-11,
-2800000,8.3852e-11,
-2900000,8.8826e-11,
-3000000,8.3957e-11,
-3100000,7.3457e-11,
-3200000,5.8376e-11,
-3300000,4.9361e-11,
-3400000,4.2003e-11,
-3500000,3.9604e-11,
-3600000,3.7628e-11,
-3700000,3.8742e-11,
-3800000,3.8816e-11,
-3900000,3.8926e-11,
-4000000,3.9924e-11,
-4100000,3.8373e-11,
-4200000,3.6492e-11,
-4300000,3.3647e-11,
-4400000,3.1917e-11,
-4500000,2.9558e-11,
-4600000,2.7851e-11,
-4700000,2.6193e-11,
-4800000,2.5301e-11,
-4900000,2.4831e-11,
-5000000,2.3819e-11,
-4950000,2.4502e-11,
-4850000,2.5208e-11,
-4750000,2.5925e-11,
-4650000,2.8018e-11,
-4550000,2.883e-11,
-4450000,3.0438e-11,
-4350000,3.2274e-11,
-4250000,3.5337e-11,
-4150000,3.8753e-11,
-4050000,3.966e-11,
-3950000,3.8942e-11,
-3850000,3.9714e-11,
-3750000,3.888e-11,
-3650000,3.8439e-11,
-3550000,3.8567e-11,
-3450000,4.0334e-11,
-3350000,4.3528e-11,
-3250000,5.2955e-11,
-3150000,6.4133e-11,
-3050000,7.7571e-11,
-2950000,8.5841e-11,
-2850000,8.7221e-11,
-2750000,8.0478e-11,
-2650000,6.8615e-11,
-2550000,5.7781e-11,
-2450000,5.1784e-11,
-2350000,5.1017e-11,
-2250000,5.4254e-11,
-2150000,6.4416e-11,
-2050000,7.3886e-11,
-1950000,7.902e-11,
-1850000,7.9643e-11,
-1750000,7.2616e-11,
-1650000,6.4633e-11,
-1550000,6.0827e-11,
-1450000,6.139e-11,
-1350000,6.8017e-11,
-1250000,8.244e-11,
-1150000,1.0601e-10,
-1050000,1.1524e-10,
-950000,1.1154e-10,
-850000,9.2825e-11,
-750000,6.9816e-11,
-650000,5.5812e-11,
-550000,4.9691e-11,
-450000,4.845e-11,
-350000,5.0758e-11,
-250000,5.5001e-11,
-150000,5.9622e-11,
-50000,6.4875e-11,
50000,7.3433e-11,
150000,8.1209e-11,
