General parameters:
Start time: 2023              8             22              2             46      14.661006
Finish time: 2023              8             22              2             52      11.310345
Dwell time (ms): 3000.000000
Source chamber pressure: 2.00e+3
Differential chamber pressure: 7.98e-07
Sample chamber pressure: 3.79e-08
Example position (nm): -3172665.921374,309522.790827,-1000000.000000
Rotation angle (udeg): 109999855.000000
==========
Instrument status: 
0:Data Directory:/icon/data/2023_08_MoS2_5um_hbn_sub/
1:Sample:MoS2
2:Comments:no
3:PinholePlate:#C13
4:z_Zero:4200
5:Operator:djw77/nav31/kw570
==========
zscan inputs: 
z_sep:50000
z_range:200000 -5000000
data_path:/icon/data/2023_08_MoS2_5um_hbn_sub/
example_pos:-3172665.9214      309522.79083          -1000000
N_dwell:200
sampling_period:15
make_plots:0
m1:0.98976
m2:-0.0073571
==========
Detector params:
Sampling period (ms): 15.000000
N dwell: 200.000000
Filament current (A): 1.540000
Filament emission (mA): 1.753434
Solenoid current (A): NaN
Solenoid shim current (A): NaN
Lens params:
0  685
1  300
2  125
3      -0.002
4       -0.01
5       0.012
6         0.8
7         2.1
8         2.8
9  3000
10  1450
11         0.85
12   0
==========
Data:
z(nm),I(A)
200000,4.254e-11,
100000,4.2905e-11,
0,4.262e-11,
-100000,4.2942e-11,
-200000,4.2305e-11,
-300000,4.3523e-11,
-400000,4.3576e-11,
-500000,4.4135e-11,
-600000,4.4471e-11,
-700000,4.5008e-11,
-800000,4.4639e-11,
-900000,4.4496e-11,
-1000000,4.5509e-11,
-1100000,4.4891e-11,
-1200000,4.4037e-11,
-1300000,4.4942e-11,
-1400000,4.6124e-11,
-1500000,4.588e-11,
-1600000,4.5974e-11,
-1700000,4.6649e-11,
-1800000,4.5643e-11,
-1900000,4.6566e-11,
-2000000,4.5238e-11,
-2100000,4.4875e-11,
-2200000,4.5356e-11,
-2300000,4.3607e-11,
-2400000,4.4016e-11,
-2500000,4.2915e-11,
-2600000,4.3864e-11,
-2700000,4.2623e-11,
-2800000,4.1657e-11,
-2900000,4.1179e-11,
-3000000,4.1525e-11,
-3100000,4.0942e-11,
-3200000,4.0043e-11,
-3300000,3.9067e-11,
-3400000,3.8961e-11,
-3500000,3.8354e-11,
-3600000,3.6801e-11,
-3700000,3.5832e-11,
-3800000,3.6007e-11,
-3900000,3.5738e-11,
-4000000,3.4382e-11,
-4100000,3.342e-11,
-4200000,3.3787e-11,
-4300000,3.1977e-11,
-4400000,3.15e-11,
-4500000,3.0879e-11,
-4600000,3.0688e-11,
-4700000,3.0928e-11,
-4800000,2.9925e-11,
-4900000,2.9766e-11,
-5000000,2.8689e-11,
-4950000,2.859e-11,
-4850000,2.9548e-11,
-4750000,3.0216e-11,
-4650000,3.0475e-11,
-4550000,3.0789e-11,
-4450000,3.1933e-11,
-4350000,3.2725e-11,
-4250000,3.2381e-11,
-4150000,3.3196e-11,
-4050000,3.3893e-11,
-3950000,3.4508e-11,
-3850000,3.5699e-11,
-3750000,3.6716e-11,
-3650000,3.7781e-11,
-3550000,3.6832e-11,
-3450000,3.8068e-11,
-3350000,3.8951e-11,
-3250000,3.9289e-11,
-3150000,3.9714e-11,
-3050000,4.0258e-11,
-2950000,4.0901e-11,
-2850000,4.1972e-11,
-2750000,4.2882e-11,
-2650000,4.2539e-11,
-2550000,4.2471e-11,
-2450000,4.3837e-11,
-2350000,4.3847e-11,
-2250000,4.5549e-11,
-2150000,4.4439e-11,
-2050000,4.5294e-11,
-1950000,4.5591e-11,
-1850000,4.5338e-11,
-1750000,4.4949e-11,
-1650000,4.6502e-11,
-1550000,4.6048e-11,
-1450000,4.578e-11,
-1350000,4.507e-11,
-1250000,4.5204e-11,
-1150000,4.4907e-11,
-1050000,4.5799e-11,
-950000,4.5165e-11,
-850000,4.5278e-11,
-750000,4.4405e-11,
-650000,4.3585e-11,
-550000,4.3109e-11,
-450000,4.2964e-11,
-350000,4.2848e-11,
-250000,4.3574e-11,
-150000,4.2904e-11,
-50000,4.3126e-11,
50000,4.2896e-11,
150000,4.2484e-11,
