General parameters:
Start time: 2023              8             28              3             51      39.343186
Finish time: 2023              8             28              3             57      35.704023
Dwell time (ms): 3000.000000
Source chamber pressure: 2.00e+3
Differential chamber pressure: 6.35e-07
Sample chamber pressure: 3.62e-08
Example position (nm): -3387112.632529,326832.831484,-1000000.000000
Rotation angle (udeg): 94999960.000000
==========
Instrument status: 
0:Data Directory:/icon/data/2023_08_MoS2_5um_hbn_sub/
1:Sample:MoS2
2:Comments:no
3:PinholePlate:#C13
4:z_Zero:4200
5:Operator:djw77/nav31/kw570
==========
zscan inputs: 
z_sep:50000
z_range:200000 -5000000
data_path:/icon/data/2023_08_MoS2_5um_hbn_sub/
example_pos:-3387112.6325      326832.83148          -1000000
N_dwell:200
sampling_period:15
make_plots:1
m1:0.98976
m2:-0.0073571
==========
Detector params:
Sampling period (ms): 15.000000
N dwell: 200.000000
Filament current (A): 1.540000
Filament emission (mA): 1.901520
Solenoid current (A): NaN
Solenoid shim current (A): NaN
Lens params:
0  685
1  300
2  125
3      -0.002
4       -0.01
5       0.012
6         0.8
7         2.1
8         2.8
9  3000
10  1450
11         0.85
12   0
==========
Data:
z(nm),I(A)
200000,6.2445e-11,
100000,6.5386e-11,
0,6.6289e-11,
-100000,6.243e-11,
-200000,6.1906e-11,
-300000,5.8933e-11,
-400000,5.8298e-11,
-500000,6.147e-11,
-600000,7.2721e-11,
-700000,9.1704e-11,
-800000,1.2573e-10,
-900000,1.5723e-10,
-1000000,1.6857e-10,
-1100000,1.4736e-10,
-1200000,1.1114e-10,
-1300000,8.7054e-11,
-1400000,7.2694e-11,
-1500000,6.2302e-11,
-1600000,5.9372e-11,
-1700000,5.7611e-11,
-1800000,5.5544e-11,
-1900000,5.334e-11,
-2000000,5.1534e-11,
-2100000,5.2144e-11,
-2200000,5.6867e-11,
-2300000,6.4005e-11,
-2400000,7.4461e-11,
-2500000,8.2478e-11,
-2600000,8.1943e-11,
-2700000,7.6155e-11,
-2800000,6.5293e-11,
-2900000,5.4549e-11,
-3000000,4.7027e-11,
-3100000,4.2932e-11,
-3200000,4.3114e-11,
-3300000,4.1014e-11,
-3400000,4.0778e-11,
-3500000,4.0638e-11,
-3600000,3.9836e-11,
-3700000,3.892e-11,
-3800000,3.6717e-11,
-3900000,3.7301e-11,
-4000000,3.5898e-11,
-4100000,3.5669e-11,
-4200000,3.5934e-11,
-4300000,3.58e-11,
-4400000,3.5154e-11,
-4500000,3.5432e-11,
-4600000,3.4746e-11,
-4700000,3.4587e-11,
-4800000,3.4406e-11,
-4900000,3.2479e-11,
-5000000,3.0437e-11,
-4950000,3.1507e-11,
-4850000,3.2558e-11,
-4750000,3.3659e-11,
-4650000,3.5482e-11,
-4550000,3.6219e-11,
-4450000,3.6247e-11,
-4350000,3.5181e-11,
-4250000,3.6306e-11,
-4150000,3.5364e-11,
-4050000,3.5692e-11,
-3950000,3.6477e-11,
-3850000,3.7104e-11,
-3750000,3.7426e-11,
-3650000,3.9424e-11,
-3550000,4.1437e-11,
-3450000,4.0755e-11,
-3350000,4.1058e-11,
-3250000,4.186e-11,
-3150000,4.2276e-11,
-3050000,4.4298e-11,
-2950000,4.9597e-11,
-2850000,5.7979e-11,
-2750000,6.9669e-11,
-2650000,7.8616e-11,
-2550000,8.1406e-11,
-2450000,7.7687e-11,
-2350000,7.0804e-11,
-2250000,5.9304e-11,
-2150000,5.4634e-11,
-2050000,5.181e-11,
-1950000,5.2676e-11,
-1850000,5.3526e-11,
-1750000,5.5995e-11,
-1650000,5.8244e-11,
-1550000,5.9701e-11,
-1450000,6.59e-11,
-1350000,7.5151e-11,
-1250000,9.6404e-11,
-1150000,1.2285e-10,
-1050000,1.5919e-10,
-950000,1.6854e-10,
-850000,1.4833e-10,
-750000,1.1231e-10,
-650000,8.5225e-11,
-550000,6.6405e-11,
-450000,5.9847e-11,
-350000,5.8898e-11,
-250000,6.057e-11,
-150000,6.2555e-11,
-50000,6.5099e-11,
50000,6.668e-11,
150000,6.6002e-11,
