General parameters:
Start time: 2023              8             22              0             27      24.470286
Finish time: 2023              8             22              0             33      20.269314
Dwell time (ms): 3000.000000
Source chamber pressure: 2.00e+3
Differential chamber pressure: 7.98e-07
Sample chamber pressure: 3.79e-08
Example position (nm): -3953066.320267,63559.300412,-1000000.000000
Rotation angle (udeg): 52499870.000000
==========
Instrument status: 
0:Data Directory:/icon/data/2023_08_MoS2_5um_hbn_sub/
1:Sample:MoS2
2:Comments:no
3:PinholePlate:#C13
4:z_Zero:4200
5:Operator:djw77/nav31/kw570
==========
zscan inputs: 
z_sep:50000
z_range:200000 -5000000
data_path:/icon/data/2023_08_MoS2_5um_hbn_sub/
example_pos:-3953066.3203      63559.300412          -1000000
N_dwell:200
sampling_period:15
make_plots:0
m1:0.98976
m2:-0.0073571
==========
Detector params:
Sampling period (ms): 15.000000
N dwell: 200.000000
Filament current (A): 1.540000
Filament emission (mA): 1.750014
Solenoid current (A): NaN
Solenoid shim current (A): NaN
Lens params:
0  685
1  300
2  125
3      -0.002
4       -0.01
5       0.012
6         0.8
7         2.1
8         2.8
9  3000
10  1450
11         0.85
12   0
==========
Data:
z(nm),I(A)
200000,3.9172e-11,
100000,3.9053e-11,
0,3.9064e-11,
-100000,3.9421e-11,
-200000,3.9359e-11,
-300000,4.1017e-11,
-400000,4.0519e-11,
-500000,4.1812e-11,
-600000,4.2019e-11,
-700000,4.1348e-11,
-800000,4.338e-11,
-900000,4.3246e-11,
-1000000,4.3535e-11,
-1100000,4.3607e-11,
-1200000,4.4652e-11,
-1300000,4.4913e-11,
-1400000,4.5298e-11,
-1500000,4.5676e-11,
-1600000,4.5966e-11,
-1700000,4.6324e-11,
-1800000,4.6298e-11,
-1900000,4.6107e-11,
-2000000,4.4521e-11,
-2100000,4.5027e-11,
-2200000,4.5483e-11,
-2300000,4.4943e-11,
-2400000,4.3924e-11,
-2500000,4.4645e-11,
-2600000,4.3612e-11,
-2700000,4.2602e-11,
-2800000,4.2492e-11,
-2900000,4.1257e-11,
-3000000,4.0675e-11,
-3100000,4.1829e-11,
-3200000,4.0649e-11,
-3300000,3.9721e-11,
-3400000,4.0018e-11,
-3500000,3.7778e-11,
-3600000,3.6586e-11,
-3700000,3.7294e-11,
-3800000,3.649e-11,
-3900000,3.4993e-11,
-4000000,3.4149e-11,
-4100000,3.4808e-11,
-4200000,3.4271e-11,
-4300000,3.3588e-11,
-4400000,3.2126e-11,
-4500000,3.1826e-11,
-4600000,3.1091e-11,
-4700000,3.0392e-11,
-4800000,2.922e-11,
-4900000,2.9592e-11,
-5000000,2.9248e-11,
-4950000,2.9404e-11,
-4850000,3.0184e-11,
-4750000,3.0358e-11,
-4650000,3.1134e-11,
-4550000,3.2087e-11,
-4450000,3.2833e-11,
-4350000,3.2955e-11,
-4250000,3.4177e-11,
-4150000,3.4639e-11,
-4050000,3.4745e-11,
-3950000,3.5311e-11,
-3850000,3.5582e-11,
-3750000,3.7174e-11,
-3650000,3.7238e-11,
-3550000,3.7499e-11,
-3450000,3.9746e-11,
-3350000,3.9687e-11,
-3250000,3.9903e-11,
-3150000,4.0498e-11,
-3050000,4.1289e-11,
-2950000,4.1351e-11,
-2850000,4.2165e-11,
-2750000,4.3223e-11,
-2650000,4.4175e-11,
-2550000,4.424e-11,
-2450000,4.4085e-11,
-2350000,4.4083e-11,
-2250000,4.5886e-11,
-2150000,4.6162e-11,
-2050000,4.4376e-11,
-1950000,4.5685e-11,
-1850000,4.6564e-11,
-1750000,4.5638e-11,
-1650000,4.4676e-11,
-1550000,4.6844e-11,
-1450000,4.4596e-11,
-1350000,4.4796e-11,
-1250000,4.4156e-11,
-1150000,4.4712e-11,
-1050000,4.3564e-11,
-950000,4.3769e-11,
-850000,4.3177e-11,
-750000,4.2054e-11,
-650000,4.2049e-11,
-550000,4.1865e-11,
-450000,4.0671e-11,
-350000,4.0511e-11,
-250000,3.9862e-11,
-150000,3.9535e-11,
-50000,3.9118e-11,
50000,3.9879e-11,
150000,3.917e-11,
