General parameters:
Start time: 2023              8             29              4              9      51.840164
Finish time: 2023              8             29              4             16      54.702019
Dwell time (ms): 3000.000000
Source chamber pressure: 2.00e+3
Differential chamber pressure: 6.05e-07
Sample chamber pressure: 3.62e-08
Example position (nm): -3470000.000000,316000.000000,-1000000.000000
Rotation angle (udeg): 90000005.000000
==========
Instrument status: 
0:Data Directory:/icon/data/2023_08_MoS2_5um_hbn_sub/
1:Sample:MoS2
2:Comments:no
3:PinholePlate:#C13
4:z_Zero:4200
5:Operator:djw77/nav31/kw570
==========
zscan inputs: 
z_sep:50000
z_range:200000 -6000000
data_path:/icon/data/2023_08_MoS2_5um_hbn_sub/
example_pos:-3470000   316000 -1000000
N_dwell:200
sampling_period:15
make_plots:1
m1:0.98976
m2:-0.0073571
==========
Detector params:
Sampling period (ms): 15.000000
N dwell: 200.000000
Filament current (A): 1.540000
Filament emission (mA): 1.923408
Solenoid current (A): NaN
Solenoid shim current (A): NaN
Lens params:
0  685
1  300
2  125
3      -0.002
4       -0.01
5       0.012
6         0.8
7         2.1
8         2.8
9  3000
10  1450
11         0.85
12   0
==========
Data:
z(nm),I(A)
200000,1.034e-10,
100000,1.0279e-10,
0,9.7061e-11,
-100000,9.0029e-11,
-200000,8.4886e-11,
-300000,7.861e-11,
-400000,7.5034e-11,
-500000,7.7798e-11,
-600000,8.7986e-11,
-700000,1.1509e-10,
-800000,1.7019e-10,
-900000,2.3333e-10,
-1000000,2.4245e-10,
-1100000,2.1103e-10,
-1200000,1.5288e-10,
-1300000,1.1255e-10,
-1400000,9.2136e-11,
-1500000,7.9555e-11,
-1600000,7.5033e-11,
-1700000,6.965e-11,
-1800000,6.9382e-11,
-1900000,6.8085e-11,
-2000000,6.7713e-11,
-2100000,6.8708e-11,
-2200000,7.2726e-11,
-2300000,8.3769e-11,
-2400000,9.2827e-11,
-2500000,1.0225e-10,
-2600000,1.0395e-10,
-2700000,9.4169e-11,
-2800000,7.9939e-11,
-2900000,6.7505e-11,
-3000000,6.0214e-11,
-3100000,5.5979e-11,
-3200000,5.4748e-11,
-3300000,5.5525e-11,
-3400000,5.677e-11,
-3500000,5.816e-11,
-3600000,5.7495e-11,
-3700000,5.4247e-11,
-3800000,5.2878e-11,
-3900000,4.9807e-11,
-4000000,4.7304e-11,
-4100000,4.4374e-11,
-4200000,4.3646e-11,
-4300000,4.1937e-11,
-4400000,4.0917e-11,
-4500000,4.0582e-11,
-4600000,3.9202e-11,
-4700000,3.878e-11,
-4800000,3.7267e-11,
-4900000,3.6818e-11,
-5000000,3.6508e-11,
-5100000,3.6459e-11,
-5200000,3.4895e-11,
-5300000,3.3911e-11,
-5400000,3.2417e-11,
-5500000,3.3484e-11,
-5600000,3.3715e-11,
-5700000,3.2599e-11,
-5800000,3.0854e-11,
-5900000,3.1238e-11,
-6000000,3.0689e-11,
-5950000,3.1175e-11,
-5850000,3.2205e-11,
-5750000,3.1972e-11,
-5650000,3.2819e-11,
-5550000,3.3804e-11,
-5450000,3.2737e-11,
-5350000,3.3373e-11,
-5250000,3.3994e-11,
-5150000,3.4891e-11,
-5050000,3.5574e-11,
-4950000,3.631e-11,
-4850000,3.7374e-11,
-4750000,3.7683e-11,
-4650000,3.8737e-11,
-4550000,3.9607e-11,
-4450000,4.0798e-11,
-4350000,4.2817e-11,
-4250000,4.3079e-11,
-4150000,4.4495e-11,
-4050000,4.518e-11,
-3950000,4.8336e-11,
-3850000,5.1112e-11,
-3750000,5.4223e-11,
-3650000,5.726e-11,
-3550000,5.7805e-11,
-3450000,5.6773e-11,
-3350000,5.7419e-11,
-3250000,5.5051e-11,
-3150000,5.5122e-11,
-3050000,5.6958e-11,
-2950000,6.1797e-11,
-2850000,7.1342e-11,
-2750000,8.4498e-11,
-2650000,9.829e-11,
-2550000,1.0357e-10,
-2450000,1.0035e-10,
-2350000,9.0013e-11,
-2250000,7.9561e-11,
-2150000,7.1849e-11,
-2050000,6.8721e-11,
-1950000,6.7998e-11,
-1850000,6.9157e-11,
-1750000,7.0788e-11,
-1650000,7.2935e-11,
-1550000,7.6393e-11,
-1450000,8.4465e-11,
-1350000,9.8954e-11,
-1250000,1.2292e-10,
-1150000,1.7084e-10,
-1050000,2.2111e-10,
-950000,2.424e-10,
-850000,2.0689e-10,
-750000,1.4103e-10,
-650000,1.0027e-10,
-550000,8.3627e-11,
-450000,7.5217e-11,
-350000,7.681e-11,
-250000,7.9652e-11,
-150000,8.672e-11,
-50000,9.3337e-11,
50000,9.9487e-11,
150000,1.046e-10,
