General parameters:
Start time: 2023              8             21             23             34      13.086663
Finish time: 2023              8             21             23             40       8.879295
Dwell time (ms): 3000.000000
Source chamber pressure: 2.00e+3
Differential chamber pressure: 7.97e-07
Sample chamber pressure: 3.79e-08
Example position (nm): -2929494.853532,220985.005954,-1000000.000000
Rotation angle (udeg): 127499930.000000
==========
Instrument status: 
0:Data Directory:/icon/data/2023_08_MoS2_5um_hbn_sub/
1:Sample:MoS2
2:Comments:no
3:PinholePlate:#C13
4:z_Zero:4200
5:Operator:djw77/nav31/kw570
==========
zscan inputs: 
z_sep:50000
z_range:200000 -5000000
data_path:/icon/data/2023_08_MoS2_5um_hbn_sub/
example_pos:-2929494.8535      220985.00595          -1000000
N_dwell:200
sampling_period:15
make_plots:0
m1:0.98976
m2:-0.0073571
==========
Detector params:
Sampling period (ms): 15.000000
N dwell: 200.000000
Filament current (A): 1.540000
Filament emission (mA): 1.746936
Solenoid current (A): NaN
Solenoid shim current (A): NaN
Lens params:
0  685
1  300
2  125
3      -0.002
4       -0.01
5       0.012
6         0.8
7         2.1
8         2.8
9  3000
10  1450
11         0.85
12   0
==========
Data:
z(nm),I(A)
200000,4.4478e-11,
100000,4.4903e-11,
0,4.4837e-11,
-100000,4.6272e-11,
-200000,4.557e-11,
-300000,4.6275e-11,
-400000,4.5639e-11,
-500000,4.7044e-11,
-600000,4.7222e-11,
-700000,4.6931e-11,
-800000,4.627e-11,
-900000,4.8461e-11,
-1000000,4.6542e-11,
-1100000,4.7576e-11,
-1200000,4.7892e-11,
-1300000,4.7762e-11,
-1400000,4.7823e-11,
-1500000,4.7834e-11,
-1600000,4.7802e-11,
-1700000,4.764e-11,
-1800000,4.7617e-11,
-1900000,4.8085e-11,
-2000000,4.6741e-11,
-2100000,4.6462e-11,
-2200000,4.6492e-11,
-2300000,4.6644e-11,
-2400000,4.6658e-11,
-2500000,4.5468e-11,
-2600000,4.509e-11,
-2700000,4.3932e-11,
-2800000,4.3213e-11,
-2900000,4.2656e-11,
-3000000,4.1747e-11,
-3100000,4.1445e-11,
-3200000,4.1006e-11,
-3300000,4.0388e-11,
-3400000,4.0268e-11,
-3500000,3.7941e-11,
-3600000,3.8783e-11,
-3700000,3.6859e-11,
-3800000,3.6573e-11,
-3900000,3.6111e-11,
-4000000,3.5801e-11,
-4100000,3.466e-11,
-4200000,3.3964e-11,
-4300000,3.3365e-11,
-4400000,3.3257e-11,
-4500000,3.186e-11,
-4600000,3.0726e-11,
-4700000,3.1811e-11,
-4800000,3.0926e-11,
-4900000,2.9846e-11,
-5000000,2.9895e-11,
-4950000,2.9665e-11,
-4850000,3.031e-11,
-4750000,3.0784e-11,
-4650000,3.1488e-11,
-4550000,3.1687e-11,
-4450000,3.2741e-11,
-4350000,3.2902e-11,
-4250000,3.4079e-11,
-4150000,3.4172e-11,
-4050000,3.489e-11,
-3950000,3.6156e-11,
-3850000,3.6136e-11,
-3750000,3.7024e-11,
-3650000,3.7652e-11,
-3550000,3.8267e-11,
-3450000,3.9406e-11,
-3350000,3.9943e-11,
-3250000,4.1688e-11,
-3150000,4.1514e-11,
-3050000,4.0936e-11,
-2950000,4.2605e-11,
-2850000,4.2236e-11,
-2750000,4.2482e-11,
-2650000,4.4133e-11,
-2550000,4.5248e-11,
-2450000,4.5167e-11,
-2350000,4.5682e-11,
-2250000,4.6916e-11,
-2150000,4.677e-11,
-2050000,4.6459e-11,
-1950000,4.7715e-11,
-1850000,4.7289e-11,
-1750000,4.7758e-11,
-1650000,4.7963e-11,
-1550000,4.7916e-11,
-1450000,4.8132e-11,
-1350000,4.7701e-11,
-1250000,4.7586e-11,
-1150000,4.7648e-11,
-1050000,4.6725e-11,
-950000,4.7342e-11,
-850000,4.7961e-11,
-750000,4.6166e-11,
-650000,4.6427e-11,
-550000,4.6347e-11,
-450000,4.6263e-11,
-350000,4.6628e-11,
-250000,4.488e-11,
-150000,4.4815e-11,
-50000,4.5987e-11,
50000,4.5647e-11,
150000,4.5405e-11,
