General parameters:
Start time: 2023              8             21             14             54      38.880519
Finish time: 2023              8             21             15              0      33.415158
Dwell time (ms): 3000.000000
Source chamber pressure: 2.00e+3
Differential chamber pressure: 7.98e-07
Sample chamber pressure: 3.84e-08
Example position (nm): -3641913.110549,254851.146232,-1000000.000000
Rotation angle (udeg): 77499850.000000
==========
Instrument status: 
0:Data Directory:/icon/data/2023_08_MoS2_5um_hbn_sub/
1:Sample:MoS2
2:Comments:no
3:PinholePlate:#C13
4:z_Zero:4200
5:Operator:djw77/nav31/kw570
==========
zscan inputs: 
z_sep:50000
z_range:200000 -5000000
data_path:/icon/data/2023_08_MoS2_5um_hbn_sub/
example_pos:-3641913.1105      254851.14623          -1000000
N_dwell:200
sampling_period:15
make_plots:0
m1:0.98976
m2:-0.0073571
==========
Detector params:
Sampling period (ms): 15.000000
N dwell: 200.000000
Filament current (A): 1.540000
Filament emission (mA): 1.741122
Solenoid current (A): NaN
Solenoid shim current (A): NaN
Lens params:
0  685
1  300
2  125
3      -0.002
4       -0.01
5       0.012
6         0.8
7         2.1
8         2.8
9  3000
10  1450
11         0.85
12   0
==========
Data:
z(nm),I(A)
200000,4.2872e-11,
100000,4.2945e-11,
0,4.3125e-11,
-100000,4.5717e-11,
-200000,4.9051e-11,
-300000,4.6173e-11,
-400000,4.6059e-11,
-500000,4.7625e-11,
-600000,4.6691e-11,
-700000,4.7689e-11,
-800000,5.5847e-11,
-900000,6.5853e-11,
-1000000,5.9643e-11,
-1100000,5.0487e-11,
-1200000,4.8699e-11,
-1300000,4.9169e-11,
-1400000,4.9055e-11,
-1500000,5.0513e-11,
-1600000,4.9326e-11,
-1700000,5.2528e-11,
-1800000,5.1386e-11,
-1900000,5.0893e-11,
-2000000,5.186e-11,
-2100000,5.326e-11,
-2200000,5.1821e-11,
-2300000,5.0619e-11,
-2400000,5.0639e-11,
-2500000,5.0677e-11,
-2600000,5.3129e-11,
-2700000,5.4906e-11,
-2800000,5.2998e-11,
-2900000,4.895e-11,
-3000000,4.9067e-11,
-3100000,5.0755e-11,
-3200000,5.0563e-11,
-3300000,5.1876e-11,
-3400000,4.9396e-11,
-3500000,4.6063e-11,
-3600000,4.3819e-11,
-3700000,4.1744e-11,
-3800000,4.0413e-11,
-3900000,4.0252e-11,
-4000000,3.9349e-11,
-4100000,3.7079e-11,
-4200000,3.6292e-11,
-4300000,3.5048e-11,
-4400000,3.3767e-11,
-4500000,3.1679e-11,
-4600000,2.9986e-11,
-4700000,2.9915e-11,
-4800000,2.9628e-11,
-4900000,2.7627e-11,
-5000000,2.697e-11,
-4950000,2.748e-11,
-4850000,2.9014e-11,
-4750000,2.9661e-11,
-4650000,3.1291e-11,
-4550000,3.1624e-11,
-4450000,3.3526e-11,
-4350000,3.3597e-11,
-4250000,3.5593e-11,
-4150000,3.7087e-11,
-4050000,3.7576e-11,
-3950000,4.0253e-11,
-3850000,4.0193e-11,
-3750000,4.0896e-11,
-3650000,4.3365e-11,
-3550000,4.473e-11,
-3450000,4.7656e-11,
-3350000,5.1489e-11,
-3250000,5.1368e-11,
-3150000,5.1534e-11,
-3050000,5.0951e-11,
-2950000,5.0942e-11,
-2850000,5.4068e-11,
-2750000,5.9106e-11,
-2650000,5.9854e-11,
-2550000,5.777e-11,
-2450000,5.58e-11,
-2350000,5.8462e-11,
-2250000,5.8835e-11,
-2150000,6.0829e-11,
-2050000,6.2397e-11,
-1950000,6.0431e-11,
-1850000,5.9938e-11,
-1750000,6.2777e-11,
-1650000,5.9281e-11,
-1550000,5.62e-11,
-1450000,5.4643e-11,
-1350000,5.2749e-11,
-1250000,5.0686e-11,
-1150000,5.3607e-11,
-1050000,6.1075e-11,
-950000,7.2702e-11,
-850000,7.0667e-11,
-750000,5.4605e-11,
-650000,4.733e-11,
-550000,4.7485e-11,
-450000,4.8525e-11,
-350000,4.6859e-11,
-250000,4.5172e-11,
-150000,4.654e-11,
-50000,4.2954e-11,
50000,4.2615e-11,
150000,4.3443e-11,
