General parameters:
Start time: 2023              8             16              0             46      20.475682
Finish time: 2023              8             16              1              1       33.84847
Dwell time (ms): 3750.000000
Source chamber pressure: 2.00e+3
Differential chamber pressure: 7.93e-07
Sample chamber pressure: 4.03e-08
Example position (nm): -3460000.000000,288000.000000,-1000000.000000
Rotation angle (udeg): 90000060.000000
==========
Instrument status: 
0:Data Directory:/icon/data/2023_08_MoS2_5um_hbn_sub/
1:Sample:MoS2
2:Comments:no
3:PinholePlate:#C13
4:z_Zero:4200
5:Operator:djw77/nav31/kw570
==========
zscan inputs: 
z_sep:30000
z_range:500000 -6000000
data_path:/icon/data/2023_08_MoS2_5um_hbn_sub/
example_pos:-3460000   288000 -1000000
N_dwell:250
sampling_period:15
make_plots:1
m1:0.98534
m2:-0.0012405
==========
Detector params:
Sampling period (ms): 15.000000
N dwell: 250.000000
Filament current (A): 1.540000
Filament emission (mA): 1.604664
Solenoid current (A): NaN
Solenoid shim current (A): NaN
Lens params:
0  685
1  300
2  125
3      -0.002
4       -0.01
5       0.012
6         0.8
7         2.1
8         2.8
9  3000
10  1450
11         0.85
12   0
==========
Data:
z(nm),I(A)
500000,9.3702e-11,
440000,9.3345e-11,
380000,9.3433e-11,
320000,9.5124e-11,
260000,9.8478e-11,
200000,9.9491e-11,
140000,1.0263e-10,
80000,1.0096e-10,
20000,1.0313e-10,
-40000,1.0402e-10,
-100000,1.0543e-10,
-160000,1.0615e-10,
-220000,1.0801e-10,
-280000,1.0856e-10,
-340000,1.1275e-10,
-400000,1.163e-10,
-460000,1.1663e-10,
-520000,1.1847e-10,
-580000,1.1976e-10,
-640000,1.2201e-10,
-700000,1.2429e-10,
-760000,1.2526e-10,
-820000,1.2669e-10,
-880000,1.2669e-10,
-940000,1.2857e-10,
-1000000,1.2915e-10,
-1060000,1.285e-10,
-1120000,1.2864e-10,
-1180000,1.2763e-10,
-1240000,1.2641e-10,
-1300000,1.2392e-10,
-1360000,1.2549e-10,
-1420000,1.2563e-10,
-1480000,1.2524e-10,
-1540000,1.2516e-10,
-1600000,1.2288e-10,
-1660000,1.2243e-10,
-1720000,1.2197e-10,
-1780000,1.2198e-10,
-1840000,1.2036e-10,
-1900000,1.1937e-10,
-1960000,1.1804e-10,
-2020000,1.1759e-10,
-2080000,1.1518e-10,
-2140000,1.1418e-10,
-2200000,1.1345e-10,
-2260000,1.1245e-10,
-2320000,1.1161e-10,
-2380000,1.1023e-10,
-2440000,1.1073e-10,
-2500000,1.0832e-10,
-2560000,1.0652e-10,
-2620000,1.0678e-10,
-2680000,1.0299e-10,
-2740000,1.0244e-10,
-2800000,1.0186e-10,
-2860000,1.0107e-10,
-2920000,9.789e-11,
-2980000,9.6043e-11,
-3040000,9.6181e-11,
-3100000,9.4688e-11,
-3160000,9.3284e-11,
-3220000,9.1255e-11,
-3280000,8.8522e-11,
-3340000,8.8545e-11,
-3400000,8.776e-11,
-3460000,8.7322e-11,
-3520000,8.5262e-11,
-3580000,8.5774e-11,
-3640000,8.5045e-11,
-3700000,8.3668e-11,
-3760000,8.291e-11,
-3820000,8.0847e-11,
-3880000,8.1127e-11,
-3940000,7.9637e-11,
-4000000,7.8742e-11,
-4060000,7.8024e-11,
-4120000,7.8066e-11,
-4180000,7.6382e-11,
-4240000,7.5762e-11,
-4300000,7.5693e-11,
-4360000,7.4592e-11,
-4420000,7.4514e-11,
-4480000,7.3296e-11,
-4540000,7.3192e-11,
-4600000,7.268e-11,
-4660000,7.1298e-11,
-4720000,7.1419e-11,
-4780000,6.9658e-11,
-4840000,6.9996e-11,
-4900000,6.9256e-11,
-4960000,6.9763e-11,
-5020000,6.7881e-11,
-5080000,6.9283e-11,
-5140000,6.7218e-11,
-5200000,6.571e-11,
-5260000,6.662e-11,
-5320000,6.4998e-11,
-5380000,6.5651e-11,
-5440000,6.5598e-11,
-5500000,6.4522e-11,
-5560000,6.3646e-11,
-5620000,6.3177e-11,
-5680000,6.3646e-11,
-5740000,6.316e-11,
-5800000,6.1758e-11,
-5860000,6.1689e-11,
-5920000,6.1313e-11,
-5980000,6.1289e-11,
-5950000,6.1438e-11,
-5890000,6.1796e-11,
-5830000,6.1604e-11,
-5770000,6.2774e-11,
-5710000,6.3419e-11,
-5650000,6.4054e-11,
-5590000,6.2601e-11,
-5530000,6.4123e-11,
-5470000,6.4928e-11,
-5410000,6.4709e-11,
-5350000,6.5678e-11,
-5290000,6.5761e-11,
-5230000,6.6426e-11,
-5170000,6.6524e-11,
-5110000,6.8297e-11,
-5050000,6.781e-11,
-4990000,6.8359e-11,
-4930000,6.8279e-11,
-4870000,6.9588e-11,
-4810000,7.0117e-11,
-4750000,7.1222e-11,
-4690000,7.1279e-11,
-4630000,7.1777e-11,
-4570000,7.2449e-11,
-4510000,7.4365e-11,
-4450000,7.3654e-11,
-4390000,7.3856e-11,
-4330000,7.3664e-11,
-4270000,7.5401e-11,
-4210000,7.629e-11,
-4150000,7.6132e-11,
-4090000,7.7285e-11,
-4030000,7.8366e-11,
-3970000,7.8978e-11,
-3910000,7.9425e-11,
-3850000,8.043e-11,
-3790000,8.1558e-11,
-3730000,8.2647e-11,
-3670000,8.307e-11,
-3610000,8.4976e-11,
-3550000,8.5042e-11,
-3490000,8.5474e-11,
-3430000,8.6385e-11,
-3370000,8.8834e-11,
-3310000,8.8829e-11,
-3250000,8.937e-11,
-3190000,9.077e-11,
-3130000,9.3278e-11,
-3070000,9.4314e-11,
-3010000,9.6891e-11,
-2950000,9.7863e-11,
-2890000,9.9928e-11,
-2830000,1.0147e-10,
-2770000,1.0098e-10,
-2710000,1.0261e-10,
-2650000,1.0403e-10,
-2590000,1.049e-10,
-2530000,1.083e-10,
-2470000,1.098e-10,
-2410000,1.1265e-10,
-2350000,1.1261e-10,
-2290000,1.1441e-10,
-2230000,1.1167e-10,
-2170000,1.138e-10,
-2110000,1.1497e-10,
-2050000,1.1698e-10,
-1990000,1.1643e-10,
-1930000,1.1938e-10,
-1870000,1.2066e-10,
-1810000,1.2121e-10,
-1750000,1.2365e-10,
-1690000,1.2152e-10,
-1630000,1.2395e-10,
-1570000,1.2532e-10,
-1510000,1.2645e-10,
-1450000,1.2541e-10,
-1390000,1.2675e-10,
-1330000,1.2683e-10,
-1270000,1.2739e-10,
-1210000,1.289e-10,
-1150000,1.2697e-10,
-1090000,1.2846e-10,
-1030000,1.2864e-10,
-970000,1.297e-10,
-910000,1.2874e-10,
-850000,1.2598e-10,
-790000,1.2514e-10,
-730000,1.2579e-10,
-670000,1.2452e-10,
-610000,1.2205e-10,
-550000,1.195e-10,
-490000,1.1764e-10,
-430000,1.1616e-10,
-370000,1.1456e-10,
-310000,1.1275e-10,
-250000,1.0863e-10,
-190000,1.0719e-10,
-130000,1.041e-10,
-70000,1.0517e-10,
-10000,1.0196e-10,
50000,9.9922e-11,
110000,1.0058e-10,
170000,9.921e-11,
230000,9.6932e-11,
290000,9.6549e-11,
350000,9.3673e-11,
410000,9.2707e-11,
470000,9.2383e-11,
