General parameters:
Start time: 2023              8             22             12             54      37.231354
Finish time: 2023              8             22             13              0      31.518458
Dwell time (ms): 3000.000000
Source chamber pressure: 2.00e+3
Differential chamber pressure: 7.98e-07
Sample chamber pressure: 3.84e-08
Example position (nm): -3351125.206135,266092.130874,-1000000.000000
Rotation angle (udeg): 95000365.000000
==========
Instrument status: 
0:Data Directory:/icon/data/2023_08_MoS2_5um_hbn_sub/
1:Sample:MoS2
2:Comments:no
3:PinholePlate:#C13
4:z_Zero:4200
5:Operator:djw77/nav31/kw570
==========
zscan inputs: 
z_sep:50000
z_range:200000 -5000000
data_path:/icon/data/2023_08_MoS2_5um_hbn_sub/
example_pos:-3351125.2061      266092.13087          -1000000
N_dwell:200
sampling_period:15
make_plots:0
m1:0.98976
m2:-0.0073571
==========
Detector params:
Sampling period (ms): 15.000000
N dwell: 200.000000
Filament current (A): 1.540000
Filament emission (mA): 1.737018
Solenoid current (A): NaN
Solenoid shim current (A): NaN
Lens params:
0  685
1  300
2  125
3      -0.002
4       -0.01
5       0.012
6         0.8
7         2.1
8         2.8
9  3000
10  1450
11         0.85
12   0
==========
Data:
z(nm),I(A)
200000,5.7981e-11,
100000,6.1234e-11,
0,6.0985e-11,
-100000,5.6243e-11,
-200000,5.3897e-11,
-300000,5.3608e-11,
-400000,5.0494e-11,
-500000,5.1405e-11,
-600000,5.6747e-11,
-700000,6.3811e-11,
-800000,6.8957e-11,
-900000,7.361e-11,
-1000000,8.9915e-11,
-1100000,8.746e-11,
-1200000,7.4597e-11,
-1300000,6.4598e-11,
-1400000,5.6921e-11,
-1500000,5.3109e-11,
-1600000,5.1187e-11,
-1700000,4.9867e-11,
-1800000,4.9357e-11,
-1900000,4.8305e-11,
-2000000,4.7882e-11,
-2100000,4.835e-11,
-2200000,4.9786e-11,
-2300000,5.0753e-11,
-2400000,5.0222e-11,
-2500000,5.3124e-11,
-2600000,5.2682e-11,
-2700000,5.0513e-11,
-2800000,4.6407e-11,
-2900000,4.5528e-11,
-3000000,4.358e-11,
-3100000,4.2946e-11,
-3200000,4.2718e-11,
-3300000,4.1204e-11,
-3400000,4.0236e-11,
-3500000,4.0033e-11,
-3600000,3.9579e-11,
-3700000,3.7799e-11,
-3800000,3.817e-11,
-3900000,3.7573e-11,
-4000000,3.6881e-11,
-4100000,3.6414e-11,
-4200000,3.5101e-11,
-4300000,3.5102e-11,
-4400000,3.5063e-11,
-4500000,3.3128e-11,
-4600000,3.2069e-11,
-4700000,3.1911e-11,
-4800000,3.1395e-11,
-4900000,3.0804e-11,
-5000000,3.0312e-11,
-4950000,3.0221e-11,
-4850000,3.1738e-11,
-4750000,3.1431e-11,
-4650000,3.2629e-11,
-4550000,3.3064e-11,
-4450000,3.4427e-11,
-4350000,3.4453e-11,
-4250000,3.4445e-11,
-4150000,3.4784e-11,
-4050000,3.5539e-11,
-3950000,3.6579e-11,
-3850000,3.7311e-11,
-3750000,3.8013e-11,
-3650000,3.8597e-11,
-3550000,4.0225e-11,
-3450000,3.9565e-11,
-3350000,3.9854e-11,
-3250000,4.1692e-11,
-3150000,4.2145e-11,
-3050000,4.353e-11,
-2950000,4.4233e-11,
-2850000,4.5601e-11,
-2750000,4.7237e-11,
-2650000,5.2089e-11,
-2550000,5.208e-11,
-2450000,4.9922e-11,
-2350000,5.1057e-11,
-2250000,4.9231e-11,
-2150000,4.8147e-11,
-2050000,4.7882e-11,
-1950000,4.6583e-11,
-1850000,4.8418e-11,
-1750000,4.9427e-11,
-1650000,4.9972e-11,
-1550000,5.1234e-11,
-1450000,5.4207e-11,
-1350000,5.771e-11,
-1250000,6.4449e-11,
-1150000,6.8281e-11,
-1050000,8.0323e-11,
-950000,6.9999e-11,
-850000,6.6972e-11,
-750000,6.4732e-11,
-650000,6.2041e-11,
-550000,5.2509e-11,
-450000,5.0378e-11,
-350000,5.0232e-11,
-250000,5.2376e-11,
-150000,5.533e-11,
-50000,5.8531e-11,
50000,5.9764e-11,
150000,6.0148e-11,
