General parameters:
Start time: 2023              8             21             16              6      45.392153
Finish time: 2023              8             21             16             12      40.941942
Dwell time (ms): 3000.000000
Source chamber pressure: 2.00e+3
Differential chamber pressure: 7.98e-07
Sample chamber pressure: 3.79e-08
Example position (nm): -3211514.683380,302017.651460,-1000000.000000
Rotation angle (udeg): 107500070.000000
==========
Instrument status: 
0:Data Directory:/icon/data/2023_08_MoS2_5um_hbn_sub/
1:Sample:MoS2
2:Comments:no
3:PinholePlate:#C13
4:z_Zero:4200
5:Operator:djw77/nav31/kw570
==========
zscan inputs: 
z_sep:50000
z_range:200000 -5000000
data_path:/icon/data/2023_08_MoS2_5um_hbn_sub/
example_pos:-3211514.6834      302017.65146          -1000000
N_dwell:200
sampling_period:15
make_plots:0
m1:0.98976
m2:-0.0073571
==========
Detector params:
Sampling period (ms): 15.000000
N dwell: 200.000000
Filament current (A): 1.540000
Filament emission (mA): 1.740780
Solenoid current (A): NaN
Solenoid shim current (A): NaN
Lens params:
0  685
1  300
2  125
3      -0.002
4       -0.01
5       0.012
6         0.8
7         2.1
8         2.8
9  3000
10  1450
11         0.85
12   0
==========
Data:
z(nm),I(A)
200000,4.7558e-11,
100000,4.8228e-11,
0,4.79e-11,
-100000,4.8456e-11,
-200000,4.9865e-11,
-300000,5.0688e-11,
-400000,5.0612e-11,
-500000,5.3091e-11,
-600000,6.0383e-11,
-700000,6.8581e-11,
-800000,7.8847e-11,
-900000,7.6086e-11,
-1000000,8.5609e-11,
-1100000,8.1189e-11,
-1200000,7.1734e-11,
-1300000,6.2952e-11,
-1400000,5.7279e-11,
-1500000,5.9552e-11,
-1600000,6.6662e-11,
-1700000,7.1153e-11,
-1800000,7.253e-11,
-1900000,6.3421e-11,
-2000000,5.3144e-11,
-2100000,4.9908e-11,
-2200000,4.7738e-11,
-2300000,4.6331e-11,
-2400000,4.7553e-11,
-2500000,4.7498e-11,
-2600000,4.555e-11,
-2700000,4.7318e-11,
-2800000,4.5435e-11,
-2900000,4.5022e-11,
-3000000,4.5922e-11,
-3100000,4.5183e-11,
-3200000,4.427e-11,
-3300000,4.4234e-11,
-3400000,4.4186e-11,
-3500000,4.4413e-11,
-3600000,4.3671e-11,
-3700000,4.3719e-11,
-3800000,4.0519e-11,
-3900000,3.744e-11,
-4000000,3.616e-11,
-4100000,3.5993e-11,
-4200000,3.4661e-11,
-4300000,3.3962e-11,
-4400000,3.4084e-11,
-4500000,3.3099e-11,
-4600000,3.2351e-11,
-4700000,3.1639e-11,
-4800000,3.1294e-11,
-4900000,3.0069e-11,
-5000000,3.0373e-11,
-4950000,2.9504e-11,
-4850000,3.0597e-11,
-4750000,3.0779e-11,
-4650000,3.2201e-11,
-4550000,3.1627e-11,
-4450000,3.3309e-11,
-4350000,3.4227e-11,
-4250000,3.3586e-11,
-4150000,3.4864e-11,
-4050000,3.5569e-11,
-3950000,3.7038e-11,
-3850000,3.9187e-11,
-3750000,4.2947e-11,
-3650000,4.401e-11,
-3550000,4.412e-11,
-3450000,4.432e-11,
-3350000,4.2658e-11,
-3250000,4.5186e-11,
-3150000,4.3499e-11,
-3050000,4.5873e-11,
-2950000,4.4804e-11,
-2850000,4.5911e-11,
-2750000,4.5899e-11,
-2650000,4.656e-11,
-2550000,4.6779e-11,
-2450000,4.6964e-11,
-2350000,4.7224e-11,
-2250000,4.7151e-11,
-2150000,4.7816e-11,
-2050000,5.084e-11,
-1950000,5.4835e-11,
-1850000,6.717e-11,
-1750000,6.9117e-11,
-1650000,6.7549e-11,
-1550000,6.1972e-11,
-1450000,5.5574e-11,
-1350000,5.7153e-11,
-1250000,6.2395e-11,
-1150000,7.2791e-11,
-1050000,8.0528e-11,
-950000,7.273e-11,
-850000,7.3682e-11,
-750000,7.048e-11,
-650000,6.3758e-11,
-550000,5.5504e-11,
-450000,5.22e-11,
-350000,5.0437e-11,
-250000,4.8851e-11,
-150000,4.8624e-11,
-50000,4.8481e-11,
50000,4.8037e-11,
150000,4.7586e-11,
