General parameters:
Start time: 2023              8             22             14             30      38.165963
Finish time: 2023              8             22             14             36      32.318108
Dwell time (ms): 3000.000000
Source chamber pressure: 2.00e+3
Differential chamber pressure: 7.98e-07
Sample chamber pressure: 3.79e-08
Example position (nm): -2839906.876551,89068.686070,-1000000.000000
Rotation angle (udeg): 135000035.000000
==========
Instrument status: 
0:Data Directory:/icon/data/2023_08_MoS2_5um_hbn_sub/
1:Sample:MoS2
2:Comments:no
3:PinholePlate:#C13
4:z_Zero:4200
5:Operator:djw77/nav31/kw570
==========
zscan inputs: 
z_sep:50000
z_range:200000 -5000000
data_path:/icon/data/2023_08_MoS2_5um_hbn_sub/
example_pos:-2839906.8766       89068.68607          -1000000
N_dwell:200
sampling_period:15
make_plots:0
m1:0.98976
m2:-0.0073571
==========
Detector params:
Sampling period (ms): 15.000000
N dwell: 200.000000
Filament current (A): 1.540000
Filament emission (mA): 1.734966
Solenoid current (A): NaN
Solenoid shim current (A): NaN
Lens params:
0  685
1  300
2  125
3      -0.002
4       -0.01
5       0.012
6         0.8
7         2.1
8         2.8
9  3000
10  1450
11         0.85
12   0
==========
Data:
z(nm),I(A)
200000,4.7736e-11,
100000,4.6916e-11,
0,4.7469e-11,
-100000,4.7934e-11,
-200000,4.8015e-11,
-300000,4.7969e-11,
-400000,4.8038e-11,
-500000,4.8897e-11,
-600000,4.8148e-11,
-700000,4.8085e-11,
-800000,4.855e-11,
-900000,4.912e-11,
-1000000,4.999e-11,
-1100000,5.0236e-11,
-1200000,4.9658e-11,
-1300000,4.9273e-11,
-1400000,4.9971e-11,
-1500000,4.9905e-11,
-1600000,4.9841e-11,
-1700000,4.9656e-11,
-1800000,5.0132e-11,
-1900000,4.9544e-11,
-2000000,5.0675e-11,
-2100000,4.8851e-11,
-2200000,4.8998e-11,
-2300000,4.769e-11,
-2400000,4.7627e-11,
-2500000,4.7104e-11,
-2600000,4.691e-11,
-2700000,4.6431e-11,
-2800000,4.4847e-11,
-2900000,4.5284e-11,
-3000000,4.4347e-11,
-3100000,4.4175e-11,
-3200000,4.2824e-11,
-3300000,4.278e-11,
-3400000,4.191e-11,
-3500000,4.0848e-11,
-3600000,3.9792e-11,
-3700000,3.9648e-11,
-3800000,3.8908e-11,
-3900000,3.7832e-11,
-4000000,3.7035e-11,
-4100000,3.65e-11,
-4200000,3.6174e-11,
-4300000,3.5056e-11,
-4400000,3.496e-11,
-4500000,3.3127e-11,
-4600000,3.3086e-11,
-4700000,3.3192e-11,
-4800000,3.2037e-11,
-4900000,3.1303e-11,
-5000000,3.027e-11,
-4950000,3.039e-11,
-4850000,3.1207e-11,
-4750000,3.2495e-11,
-4650000,3.3013e-11,
-4550000,3.3594e-11,
-4450000,3.4198e-11,
-4350000,3.4535e-11,
-4250000,3.5818e-11,
-4150000,3.5942e-11,
-4050000,3.6776e-11,
-3950000,3.7913e-11,
-3850000,3.798e-11,
-3750000,3.9475e-11,
-3650000,3.9419e-11,
-3550000,3.9923e-11,
-3450000,4.0609e-11,
-3350000,4.2685e-11,
-3250000,4.2365e-11,
-3150000,4.3416e-11,
-3050000,4.2839e-11,
-2950000,4.4103e-11,
-2850000,4.497e-11,
-2750000,4.6778e-11,
-2650000,4.6384e-11,
-2550000,4.5955e-11,
-2450000,4.7675e-11,
-2350000,4.7369e-11,
-2250000,4.8287e-11,
-2150000,4.8321e-11,
-2050000,4.859e-11,
-1950000,4.8077e-11,
-1850000,4.9304e-11,
-1750000,4.9564e-11,
-1650000,5.0181e-11,
-1550000,4.897e-11,
-1450000,4.9204e-11,
-1350000,4.9657e-11,
-1250000,4.8765e-11,
-1150000,4.9629e-11,
-1050000,4.847e-11,
-950000,4.9477e-11,
-850000,4.8888e-11,
-750000,4.8593e-11,
-650000,4.8655e-11,
-550000,4.8275e-11,
-450000,4.7598e-11,
-350000,4.7208e-11,
-250000,4.7331e-11,
-150000,4.7718e-11,
-50000,4.7866e-11,
50000,4.7334e-11,
150000,4.7317e-11,
