General parameters:
Start time: 2023              8             19             15              3       6.380816
Finish time: 2023              8             19             15              9       7.497474
Dwell time (ms): 3000.000000
Source chamber pressure: 2.00e+3
Differential chamber pressure: 7.97e-07
Sample chamber pressure: 3.84e-08
Example position (nm): -3696122.853798,207969.350829,-1000000.000000
Rotation angle (udeg): 75000280.000000
==========
Instrument status: 
0:Data Directory:/icon/data/2023_08_MoS2_5um_hbn_sub/
1:Sample:MoS2
2:Comments:no
3:PinholePlate:#C13
4:z_Zero:4200
5:Operator:djw77/nav31/kw570
==========
zscan inputs: 
z_sep:50000
z_range:200000 -5000000
data_path:/icon/data/2023_08_MoS2_5um_hbn_sub/
example_pos:-3696122.8538      207969.35083          -1000000
N_dwell:200
sampling_period:15
make_plots:0
m1:0.98976
m2:-0.0073571
==========
Detector params:
Sampling period (ms): 15.000000
N dwell: 200.000000
Filament current (A): 1.540000
Filament emission (mA): 1.681614
Solenoid current (A): NaN
Solenoid shim current (A): NaN
Lens params:
0  685
1  300
2  125
3      -0.002
4       -0.01
5       0.012
6         0.8
7         2.1
8         2.8
9  3000
10  1450
11         0.85
12   0
==========
Data:
z(nm),I(A)
200000,1.0405e-10,
100000,9.0237e-11,
0,8.3431e-11,
-100000,7.9302e-11,
-200000,6.7774e-11,
-300000,5.7202e-11,
-400000,5.1383e-11,
-500000,5.0731e-11,
-600000,5.1738e-11,
-700000,6.4831e-11,
-800000,9.3569e-11,
-900000,1.3197e-10,
-1000000,1.4289e-10,
-1100000,1.1986e-10,
-1200000,8.9268e-11,
-1300000,6.5478e-11,
-1400000,6.1494e-11,
-1500000,5.8512e-11,
-1600000,5.8729e-11,
-1700000,6.5045e-11,
-1800000,7.1147e-11,
-1900000,7.5642e-11,
-2000000,7.4472e-11,
-2100000,6.5209e-11,
-2200000,5.6506e-11,
-2300000,5.1061e-11,
-2400000,5.0425e-11,
-2500000,5.1553e-11,
-2600000,5.6586e-11,
-2700000,6.0769e-11,
-2800000,6.5141e-11,
-2900000,6.4795e-11,
-3000000,6.1171e-11,
-3100000,5.5804e-11,
-3200000,5.0399e-11,
-3300000,4.3992e-11,
-3400000,4.2171e-11,
-3500000,3.9964e-11,
-3600000,3.7678e-11,
-3700000,3.6382e-11,
-3800000,3.6185e-11,
-3900000,3.5136e-11,
-4000000,3.4859e-11,
-4100000,3.3748e-11,
-4200000,3.136e-11,
-4300000,3.113e-11,
-4400000,3.025e-11,
-4500000,2.8249e-11,
-4600000,2.8182e-11,
-4700000,2.6191e-11,
-4800000,2.6744e-11,
-4900000,2.5981e-11,
-5000000,2.5889e-11,
-4950000,2.4627e-11,
-4850000,2.6052e-11,
-4750000,2.6659e-11,
-4650000,2.7237e-11,
-4550000,2.7725e-11,
-4450000,2.9151e-11,
-4350000,3.0837e-11,
-4250000,3.1479e-11,
-4150000,3.2167e-11,
-4050000,3.3603e-11,
-3950000,3.4901e-11,
-3850000,3.6115e-11,
-3750000,3.675e-11,
-3650000,3.7616e-11,
-3550000,3.8144e-11,
-3450000,4.0177e-11,
-3350000,4.3284e-11,
-3250000,4.6777e-11,
-3150000,5.1454e-11,
-3050000,5.6611e-11,
-2950000,6.4285e-11,
-2850000,6.6576e-11,
-2750000,6.3244e-11,
-2650000,5.9407e-11,
-2550000,5.4749e-11,
-2450000,5.2544e-11,
-2350000,5.0919e-11,
-2250000,5.3314e-11,
-2150000,5.8524e-11,
-2050000,6.7963e-11,
-1950000,7.4244e-11,
-1850000,7.4691e-11,
-1750000,6.9072e-11,
-1650000,6.3651e-11,
-1550000,6.0862e-11,
-1450000,6.3352e-11,
-1350000,7.0448e-11,
-1250000,8.6195e-11,
-1150000,1.2055e-10,
-1050000,1.412e-10,
-950000,1.393e-10,
-850000,1.1841e-10,
-750000,8.4144e-11,
-650000,5.9921e-11,
-550000,5.3268e-11,
-450000,5.2096e-11,
-350000,5.4862e-11,
-250000,6.2457e-11,
-150000,7.2089e-11,
-50000,8.0552e-11,
50000,8.4019e-11,
150000,9.2837e-11,
