General parameters:
Start time: 2023              9              4             16              0       13.46809
Finish time: 2023              9              4             16              9      16.390732
Dwell time (ms): 3750.000000
Source chamber pressure: Error-S
Differential chamber pressure: 7.95e-07
Sample chamber pressure: 3.75e-08
Example position (nm): -2890000.000000,245000.000000,-1000000.000000
Rotation angle (udeg): 124999955.000000
==========
Instrument status: 
0:Data Directory:/icon/data/2023_08_MoS2_5um_hbn_sub/
1:Sample:MoS2
2:Comments:no
3:PinholePlate:#C13
4:z_Zero:4200
5:Operator:djw77/nav31/kw570
==========
zscan inputs: 
z_sep:50000
z_range:500000 -6000000
data_path:/icon/data/2023_08_MoS2_5um_hbn_sub/
example_pos:-2890000   245000 -1000000
N_dwell:250
sampling_period:15
make_plots:1
m1:0.98976
m2:-0.0073571
==========
Detector params:
Sampling period (ms): 15.000000
N dwell: 250.000000
Filament current (A): 1.540000
Filament emission (mA): 1.928880
Solenoid current (A): NaN
Solenoid shim current (A): NaN
Lens params:
0  685
1  300
2  125
3      -0.002
4       -0.01
5       0.012
6         0.8
7         2.1
8         2.8
9  3000
10  1450
11         0.85
12   0
==========
Data:
z(nm),I(A)
500000,1.0018e-10,
400000,1.0333e-10,
300000,1.0973e-10,
200000,1.1518e-10,
100000,1.1661e-10,
0,1.1976e-10,
-100000,1.1741e-10,
-200000,1.2054e-10,
-300000,1.2256e-10,
-400000,1.2365e-10,
-500000,1.2886e-10,
-600000,1.4089e-10,
-700000,1.6055e-10,
-800000,1.9743e-10,
-900000,2.2034e-10,
-1000000,1.9314e-10,
-1100000,1.5207e-10,
-1200000,1.2851e-10,
-1300000,1.2219e-10,
-1400000,1.1745e-10,
-1500000,1.2716e-10,
-1600000,1.4942e-10,
-1700000,1.6923e-10,
-1800000,1.7104e-10,
-1900000,1.5446e-10,
-2000000,1.3298e-10,
-2100000,1.1411e-10,
-2200000,1.0927e-10,
-2300000,1.1379e-10,
-2400000,1.3814e-10,
-2500000,1.7894e-10,
-2600000,2.1689e-10,
-2700000,2.4033e-10,
-2800000,2.3311e-10,
-2900000,2.0228e-10,
-3000000,1.5952e-10,
-3100000,1.2386e-10,
-3200000,1.0451e-10,
-3300000,9.8666e-11,
-3400000,9.8915e-11,
-3500000,1.0841e-10,
-3600000,1.1948e-10,
-3700000,1.2902e-10,
-3800000,1.305e-10,
-3900000,1.2635e-10,
-4000000,1.128e-10,
-4100000,9.9826e-11,
-4200000,8.6068e-11,
-4300000,7.3106e-11,
-4400000,6.436e-11,
-4500000,5.9705e-11,
-4600000,5.592e-11,
-4700000,5.4849e-11,
-4800000,5.3328e-11,
-4900000,5.3471e-11,
-5000000,5.2755e-11,
-5100000,5.2546e-11,
-5200000,5.2558e-11,
-5300000,5.1365e-11,
-5400000,5.2278e-11,
-5500000,4.9126e-11,
-5600000,4.6419e-11,
-5700000,4.57e-11,
-5800000,4.464e-11,
-5900000,4.1966e-11,
-6000000,4.1142e-11,
-5950000,4.2023e-11,
-5850000,4.3984e-11,
-5750000,4.5613e-11,
-5650000,4.6891e-11,
-5550000,4.7748e-11,
-5450000,5.1194e-11,
-5350000,5.2099e-11,
-5250000,5.1807e-11,
-5150000,5.2582e-11,
-5050000,5.319e-11,
-4950000,5.4016e-11,
-4850000,5.2132e-11,
-4750000,5.3926e-11,
-4650000,5.4942e-11,
-4550000,5.6456e-11,
-4450000,5.982e-11,
-4350000,6.7076e-11,
-4250000,7.5543e-11,
-4150000,8.8912e-11,
-4050000,1.0335e-10,
-3950000,1.1761e-10,
-3850000,1.2787e-10,
-3750000,1.281e-10,
-3650000,1.237e-10,
-3550000,1.1356e-10,
-3450000,1.0387e-10,
-3350000,9.7097e-11,
-3250000,1.0036e-10,
-3150000,1.1134e-10,
-3050000,1.3688e-10,
-2950000,1.7701e-10,
-2850000,2.1591e-10,
-2750000,2.3412e-10,
-2650000,2.3269e-10,
-2550000,2.0193e-10,
-2450000,1.5814e-10,
-2350000,1.2703e-10,
-2250000,1.1227e-10,
-2150000,1.1177e-10,
-2050000,1.2071e-10,
-1950000,1.3831e-10,
-1850000,1.5105e-10,
-1750000,1.6756e-10,
-1650000,1.5792e-10,
-1550000,1.3746e-10,
-1450000,1.2325e-10,
-1350000,1.1894e-10,
-1250000,1.2463e-10,
-1150000,1.3496e-10,
-1050000,1.6551e-10,
-950000,2.0485e-10,
-850000,2.1043e-10,
-750000,1.7616e-10,
-650000,1.5183e-10,
-550000,1.3711e-10,
-450000,1.2933e-10,
-350000,1.2635e-10,
-250000,1.2639e-10,
-150000,1.222e-10,
-50000,1.2199e-10,
50000,1.2145e-10,
150000,1.1866e-10,
250000,1.1087e-10,
350000,1.0739e-10,
450000,9.336e-11,
