General parameters:
Start time: 2023              9             21             16             17      32.536909
Finish time: 2023              9             21             16             26      36.136276
Dwell time (ms): 3750.000000
Source chamber pressure: Error-S
Differential chamber pressure: 7.94e-07
Sample chamber pressure: 3.52e-08
Example position (nm): -4592000.000000,228000.000000,-2700000.000000
Rotation angle (udeg): 124999865.000000
==========
Instrument status: 
0:Data Directory:/icon/data/2023_08_MoS2_5um_hbn_sub/
1:Sample:MoS2
2:Comments:no
3:PinholePlate:#C13
4:z_Zero:4200
5:Operator:djw77/nav31/kw570
==========
zscan inputs: 
z_sep:50000
z_range:500000 -6000000
data_path:/icon/data/2023_08_MoS2_5um_hbn_sub/
example_pos:-4592000   228000 -2700000
N_dwell:250
sampling_period:15
make_plots:1
m1:0.98976
m2:-0.0073571
==========
Detector params:
Sampling period (ms): 15.000000
N dwell: 250.000000
Filament current (A): 1.540000
Filament emission (mA): 3.026358
Solenoid current (A): NaN
Solenoid shim current (A): NaN
Lens params:
0  685
1  300
2  125
3      -0.002
4       -0.01
5       0.012
6         0.8
7         2.1
8         2.8
9  3000
10  1450
11         0.85
12   0
==========
Data:
z(nm),I(A)
500000,2.0852e-10,
400000,2.1478e-10,
300000,2.2883e-10,
200000,2.5539e-10,
100000,2.715e-10,
0,2.9204e-10,
-100000,2.8525e-10,
-200000,2.8831e-10,
-300000,2.9519e-10,
-400000,3.0093e-10,
-500000,3.2152e-10,
-600000,3.2002e-10,
-700000,3.431e-10,
-800000,3.8061e-10,
-900000,4.0939e-10,
-1000000,4.1018e-10,
-1100000,3.9949e-10,
-1200000,3.7529e-10,
-1300000,3.6231e-10,
-1400000,3.6319e-10,
-1500000,3.6517e-10,
-1600000,3.6008e-10,
-1700000,3.6635e-10,
-1800000,3.5727e-10,
-1900000,3.4362e-10,
-2000000,3.3755e-10,
-2100000,3.3354e-10,
-2200000,3.3369e-10,
-2300000,3.3438e-10,
-2400000,3.379e-10,
-2500000,3.3713e-10,
-2600000,3.3539e-10,
-2700000,3.3245e-10,
-2800000,3.2688e-10,
-2900000,3.1211e-10,
-3000000,3.0098e-10,
-3100000,2.874e-10,
-3200000,2.7664e-10,
-3300000,2.6686e-10,
-3400000,2.5844e-10,
-3500000,2.447e-10,
-3600000,2.3486e-10,
-3700000,2.2596e-10,
-3800000,2.1949e-10,
-3900000,2.0988e-10,
-4000000,2.0651e-10,
-4100000,1.9487e-10,
-4200000,1.8516e-10,
-4300000,1.7537e-10,
-4400000,1.6743e-10,
-4500000,1.6217e-10,
-4600000,1.5419e-10,
-4700000,1.494e-10,
-4800000,1.4457e-10,
-4900000,1.3979e-10,
-5000000,1.3735e-10,
-5100000,1.3444e-10,
-5200000,1.3158e-10,
-5300000,1.293e-10,
-5400000,1.2601e-10,
-5500000,1.275e-10,
-5600000,1.2764e-10,
-5700000,1.2305e-10,
-5800000,1.1863e-10,
-5900000,1.1588e-10,
-6000000,1.1204e-10,
-5950000,1.1348e-10,
-5850000,1.1533e-10,
-5750000,1.1977e-10,
-5650000,1.2696e-10,
-5550000,1.2901e-10,
-5450000,1.2716e-10,
-5350000,1.2813e-10,
-5250000,1.3005e-10,
-5150000,1.3312e-10,
-5050000,1.3627e-10,
-4950000,1.392e-10,
-4850000,1.4271e-10,
-4750000,1.4607e-10,
-4650000,1.5198e-10,
-4550000,1.5794e-10,
-4450000,1.6603e-10,
-4350000,1.736e-10,
-4250000,1.7959e-10,
-4150000,1.894e-10,
-4050000,2.0123e-10,
-3950000,2.086e-10,
-3850000,2.1283e-10,
-3750000,2.228e-10,
-3650000,2.3274e-10,
-3550000,2.4007e-10,
-3450000,2.474e-10,
-3350000,2.6041e-10,
-3250000,2.7022e-10,
-3150000,2.8216e-10,
-3050000,2.9234e-10,
-2950000,3.0465e-10,
-2850000,3.1512e-10,
-2750000,3.2518e-10,
-2650000,3.307e-10,
-2550000,3.3516e-10,
-2450000,3.3482e-10,
-2350000,3.3078e-10,
-2250000,3.2439e-10,
-2150000,3.3616e-10,
-2050000,3.3482e-10,
-1950000,3.2189e-10,
-1850000,3.1958e-10,
-1750000,3.3731e-10,
-1650000,3.4523e-10,
-1550000,3.463e-10,
-1450000,3.5226e-10,
-1350000,3.4752e-10,
-1250000,3.5535e-10,
-1150000,3.6857e-10,
-1050000,4.0144e-10,
-950000,4.0841e-10,
-850000,4.0209e-10,
-750000,3.475e-10,
-650000,3.051e-10,
-550000,2.9641e-10,
-450000,3.1515e-10,
-350000,2.9794e-10,
-250000,2.7159e-10,
-150000,2.6542e-10,
-50000,2.645e-10,
50000,2.4243e-10,
150000,2.4114e-10,
250000,2.1509e-10,
350000,2.0736e-10,
450000,1.955e-10,
