General parameters:
Start time: 2023              8             22              1             45      54.457019
Finish time: 2023              8             22              1             51       52.05444
Dwell time (ms): 3000.000000
Source chamber pressure: 2.00e+3
Differential chamber pressure: 7.99e-07
Sample chamber pressure: 3.78e-08
Example position (nm): -3540779.807391,301531.645148,-1000000.000000
Rotation angle (udeg): 85000150.000000
==========
Instrument status: 
0:Data Directory:/icon/data/2023_08_MoS2_5um_hbn_sub/
1:Sample:MoS2
2:Comments:no
3:PinholePlate:#C13
4:z_Zero:4200
5:Operator:djw77/nav31/kw570
==========
zscan inputs: 
z_sep:50000
z_range:200000 -5000000
data_path:/icon/data/2023_08_MoS2_5um_hbn_sub/
example_pos:-3540779.8074      301531.64515          -1000000
N_dwell:200
sampling_period:15
make_plots:0
m1:0.98976
m2:-0.0073571
==========
Detector params:
Sampling period (ms): 15.000000
N dwell: 200.000000
Filament current (A): 1.540000
Filament emission (mA): 1.752750
Solenoid current (A): NaN
Solenoid shim current (A): NaN
Lens params:
0  685
1  300
2  125
3      -0.002
4       -0.01
5       0.012
6         0.8
7         2.1
8         2.8
9  3000
10  1450
11         0.85
12   0
==========
Data:
z(nm),I(A)
200000,5.7749e-11,
100000,5.365e-11,
0,5.1019e-11,
-100000,5.6754e-11,
-200000,5.8378e-11,
-300000,5.709e-11,
-400000,5.8021e-11,
-500000,5.678e-11,
-600000,5.9775e-11,
-700000,6.4494e-11,
-800000,7.7725e-11,
-900000,1.0296e-10,
-1000000,1.0079e-10,
-1100000,8.6252e-11,
-1200000,6.6467e-11,
-1300000,5.7395e-11,
-1400000,5.9574e-11,
-1500000,5.8436e-11,
-1600000,5.937e-11,
-1700000,5.94e-11,
-1800000,5.9918e-11,
-1900000,5.961e-11,
-2000000,5.716e-11,
-2100000,5.6695e-11,
-2200000,5.6199e-11,
-2300000,5.6355e-11,
-2400000,5.6578e-11,
-2500000,5.4979e-11,
-2600000,5.6106e-11,
-2700000,5.2434e-11,
-2800000,4.9778e-11,
-2900000,4.6513e-11,
-3000000,4.6115e-11,
-3100000,4.3887e-11,
-3200000,4.3259e-11,
-3300000,4.5448e-11,
-3400000,4.7918e-11,
-3500000,4.8568e-11,
-3600000,4.7492e-11,
-3700000,4.4587e-11,
-3800000,4.138e-11,
-3900000,3.869e-11,
-4000000,3.5173e-11,
-4100000,3.1618e-11,
-4200000,3.1116e-11,
-4300000,2.9192e-11,
-4400000,2.9407e-11,
-4500000,2.8194e-11,
-4600000,2.7265e-11,
-4700000,2.7164e-11,
-4800000,2.6778e-11,
-4900000,2.6594e-11,
-5000000,2.5397e-11,
-4950000,2.5845e-11,
-4850000,2.7307e-11,
-4750000,2.6694e-11,
-4650000,2.7901e-11,
-4550000,2.8085e-11,
-4450000,2.7633e-11,
-4350000,2.9481e-11,
-4250000,2.916e-11,
-4150000,3.0942e-11,
-4050000,3.3451e-11,
-3950000,3.5871e-11,
-3850000,4.0745e-11,
-3750000,4.3386e-11,
-3650000,4.596e-11,
-3550000,4.8678e-11,
-3450000,4.9686e-11,
-3350000,4.689e-11,
-3250000,4.4874e-11,
-3150000,4.457e-11,
-3050000,4.3306e-11,
-2950000,4.6595e-11,
-2850000,4.6421e-11,
-2750000,5.0774e-11,
-2650000,5.3365e-11,
-2550000,5.5931e-11,
-2450000,5.7894e-11,
-2350000,5.5352e-11,
-2250000,5.5024e-11,
-2150000,5.2811e-11,
-2050000,5.3342e-11,
-1950000,5.5281e-11,
-1850000,5.6845e-11,
-1750000,5.9294e-11,
-1650000,6.1513e-11,
-1550000,6.3346e-11,
-1450000,6.6385e-11,
-1350000,7.1092e-11,
-1250000,7.4924e-11,
-1150000,9.4553e-11,
-1050000,1.1381e-10,
-950000,1.2589e-10,
-850000,1.0425e-10,
-750000,7.9082e-11,
-650000,6.3367e-11,
-550000,6.1518e-11,
-450000,5.9208e-11,
-350000,5.94e-11,
-250000,5.7526e-11,
-150000,5.4929e-11,
-50000,5.004e-11,
50000,4.7399e-11,
150000,4.6281e-11,
