General parameters:
Start time: 2023              8             21             16             36      48.402825
Finish time: 2023              8             21             16             42      43.898356
Dwell time (ms): 3000.000000
Source chamber pressure: 2.00e+3
Differential chamber pressure: 7.97e-07
Sample chamber pressure: 3.79e-08
Example position (nm): -3035595.033902,254893.201309,-1000000.000000
Rotation angle (udeg): 119999995.000000
==========
Instrument status: 
0:Data Directory:/icon/data/2023_08_MoS2_5um_hbn_sub/
1:Sample:MoS2
2:Comments:no
3:PinholePlate:#C13
4:z_Zero:4200
5:Operator:djw77/nav31/kw570
==========
zscan inputs: 
z_sep:50000
z_range:200000 -5000000
data_path:/icon/data/2023_08_MoS2_5um_hbn_sub/
example_pos:-3035595.0339      254893.20131          -1000000
N_dwell:200
sampling_period:15
make_plots:0
m1:0.98976
m2:-0.0073571
==========
Detector params:
Sampling period (ms): 15.000000
N dwell: 200.000000
Filament current (A): 1.540000
Filament emission (mA): 1.741464
Solenoid current (A): NaN
Solenoid shim current (A): NaN
Lens params:
0  685
1  300
2  125
3      -0.002
4       -0.01
5       0.012
6         0.8
7         2.1
8         2.8
9  3000
10  1450
11         0.85
12   0
==========
Data:
z(nm),I(A)
200000,4.529e-11,
100000,4.4303e-11,
0,4.5736e-11,
-100000,4.5737e-11,
-200000,4.5983e-11,
-300000,4.6087e-11,
-400000,4.7186e-11,
-500000,4.714e-11,
-600000,4.6243e-11,
-700000,4.8348e-11,
-800000,4.7724e-11,
-900000,4.7562e-11,
-1000000,4.9015e-11,
-1100000,4.8434e-11,
-1200000,4.8215e-11,
-1300000,4.8135e-11,
-1400000,4.877e-11,
-1500000,4.8587e-11,
-1600000,4.7284e-11,
-1700000,4.8171e-11,
-1800000,4.8637e-11,
-1900000,4.9179e-11,
-2000000,4.7946e-11,
-2100000,4.8569e-11,
-2200000,4.7955e-11,
-2300000,4.7661e-11,
-2400000,4.7515e-11,
-2500000,4.6647e-11,
-2600000,4.6203e-11,
-2700000,4.5404e-11,
-2800000,4.4307e-11,
-2900000,4.4556e-11,
-3000000,4.3973e-11,
-3100000,4.2423e-11,
-3200000,4.2236e-11,
-3300000,4.2559e-11,
-3400000,4.1367e-11,
-3500000,3.9866e-11,
-3600000,3.9896e-11,
-3700000,3.9e-11,
-3800000,3.8529e-11,
-3900000,3.7254e-11,
-4000000,3.6325e-11,
-4100000,3.5808e-11,
-4200000,3.5211e-11,
-4300000,3.4762e-11,
-4400000,3.3954e-11,
-4500000,3.4046e-11,
-4600000,3.251e-11,
-4700000,3.1784e-11,
-4800000,3.1949e-11,
-4900000,3.1185e-11,
-5000000,2.9947e-11,
-4950000,3.073e-11,
-4850000,3.1657e-11,
-4750000,3.2007e-11,
-4650000,3.2069e-11,
-4550000,3.2992e-11,
-4450000,3.3213e-11,
-4350000,3.4515e-11,
-4250000,3.4754e-11,
-4150000,3.5669e-11,
-4050000,3.5963e-11,
-3950000,3.6714e-11,
-3850000,3.7239e-11,
-3750000,3.8635e-11,
-3650000,3.9286e-11,
-3550000,4.0566e-11,
-3450000,4.0844e-11,
-3350000,4.0923e-11,
-3250000,4.0922e-11,
-3150000,4.36e-11,
-3050000,4.2429e-11,
-2950000,4.3638e-11,
-2850000,4.3398e-11,
-2750000,4.4444e-11,
-2650000,4.5939e-11,
-2550000,4.5879e-11,
-2450000,4.6107e-11,
-2350000,4.6976e-11,
-2250000,4.7894e-11,
-2150000,4.77e-11,
-2050000,4.7798e-11,
-1950000,4.8329e-11,
-1850000,4.7094e-11,
-1750000,4.8822e-11,
-1650000,4.8225e-11,
-1550000,4.7164e-11,
-1450000,4.87e-11,
-1350000,4.825e-11,
-1250000,4.7244e-11,
-1150000,4.8959e-11,
-1050000,4.8766e-11,
-950000,4.7738e-11,
-850000,4.6312e-11,
-750000,4.8091e-11,
-650000,4.7969e-11,
-550000,4.6948e-11,
-450000,4.6314e-11,
-350000,4.6106e-11,
-250000,4.607e-11,
-150000,4.5833e-11,
-50000,4.6103e-11,
50000,4.5455e-11,
150000,4.4756e-11,
