General parameters:
Start time: 2023              8             16             14             24      54.766045
Finish time: 2023              8             16             14             39      58.878269
Dwell time (ms): 3750.000000
Source chamber pressure: 2.00e+3
Differential chamber pressure: 7.91e-07
Sample chamber pressure: 3.94e-08
Example position (nm): -3424000.000000,248000.000000,-1000000.000000
Rotation angle (udeg): 90000070.000000
==========
Instrument status: 
0:Data Directory:/icon/data/2023_08_MoS2_5um_hbn_sub/
1:Sample:MoS2
2:Comments:no
3:PinholePlate:#C13
4:z_Zero:4200
5:Operator:djw77/nav31/kw570
==========
zscan inputs: 
z_sep:30000
z_range:500000 -6000000
data_path:/icon/data/2023_08_MoS2_5um_hbn_sub/
example_pos:-3424000   248000 -1000000
N_dwell:250
sampling_period:15
make_plots:1
m1:0.98534
m2:-0.0012405
==========
Detector params:
Sampling period (ms): 15.000000
N dwell: 250.000000
Filament current (A): 1.540000
Filament emission (mA): 1.640574
Solenoid current (A): NaN
Solenoid shim current (A): NaN
Lens params:
0  685
1  300
2  125
3      -0.002
4       -0.01
5       0.012
6         0.8
7         2.1
8         2.8
9  3000
10  1450
11         0.85
12   0
==========
Data:
z(nm),I(A)
500000,1.0093e-10,
440000,1.0251e-10,
380000,1.0603e-10,
320000,1.0579e-10,
260000,1.0852e-10,
200000,1.0867e-10,
140000,1.0807e-10,
80000,1.0771e-10,
20000,1.0715e-10,
-40000,1.0695e-10,
-100000,1.0527e-10,
-160000,1.0278e-10,
-220000,1.0206e-10,
-280000,1.0177e-10,
-340000,9.86e-11,
-400000,9.9516e-11,
-460000,1.0117e-10,
-520000,1.0349e-10,
-580000,1.0474e-10,
-640000,1.0942e-10,
-700000,1.1399e-10,
-760000,1.2233e-10,
-820000,1.381e-10,
-880000,1.5372e-10,
-940000,1.6156e-10,
-1000000,1.6375e-10,
-1060000,1.6176e-10,
-1120000,1.5223e-10,
-1180000,1.3703e-10,
-1240000,1.2803e-10,
-1300000,1.2076e-10,
-1360000,1.1464e-10,
-1420000,1.1115e-10,
-1480000,1.078e-10,
-1540000,1.0558e-10,
-1600000,1.0461e-10,
-1660000,1.0346e-10,
-1720000,1.0267e-10,
-1780000,1.0187e-10,
-1840000,1.0037e-10,
-1900000,9.9014e-11,
-1960000,9.9533e-11,
-2020000,1.0064e-10,
-2080000,9.9484e-11,
-2140000,9.7312e-11,
-2200000,9.8535e-11,
-2260000,9.9025e-11,
-2320000,9.989e-11,
-2380000,9.9011e-11,
-2440000,9.8846e-11,
-2500000,9.7282e-11,
-2560000,9.4774e-11,
-2620000,9.5309e-11,
-2680000,9.3486e-11,
-2740000,9.1161e-11,
-2800000,9.1487e-11,
-2860000,8.9305e-11,
-2920000,8.8317e-11,
-2980000,8.8069e-11,
-3040000,8.8503e-11,
-3100000,8.5585e-11,
-3160000,8.5282e-11,
-3220000,8.5832e-11,
-3280000,8.4815e-11,
-3340000,8.4874e-11,
-3400000,8.2814e-11,
-3460000,8.2092e-11,
-3520000,8.19e-11,
-3580000,8.0597e-11,
-3640000,8.0627e-11,
-3700000,7.977e-11,
-3760000,7.854e-11,
-3820000,7.8704e-11,
-3880000,7.7686e-11,
-3940000,7.6149e-11,
-4000000,7.5816e-11,
-4060000,7.5166e-11,
-4120000,7.4482e-11,
-4180000,7.5283e-11,
-4240000,7.4277e-11,
-4300000,7.27e-11,
-4360000,7.1529e-11,
-4420000,7.0464e-11,
-4480000,7.0618e-11,
-4540000,7.1194e-11,
-4600000,6.895e-11,
-4660000,6.884e-11,
-4720000,6.9588e-11,
-4780000,6.7459e-11,
-4840000,6.8082e-11,
-4900000,6.615e-11,
-4960000,6.7042e-11,
-5020000,6.6534e-11,
-5080000,6.5658e-11,
-5140000,6.4293e-11,
-5200000,6.3781e-11,
-5260000,6.4126e-11,
-5320000,6.3453e-11,
-5380000,6.1781e-11,
-5440000,6.3194e-11,
-5500000,6.2402e-11,
-5560000,6.0926e-11,
-5620000,6.1324e-11,
-5680000,6.0665e-11,
-5740000,5.9721e-11,
-5800000,5.9589e-11,
-5860000,5.8721e-11,
-5920000,5.889e-11,
-5980000,5.841e-11,
-5950000,5.9098e-11,
-5890000,5.9752e-11,
-5830000,5.957e-11,
-5770000,6.0435e-11,
-5710000,6.0394e-11,
-5650000,6.1043e-11,
-5590000,6.1208e-11,
-5530000,6.1562e-11,
-5470000,6.1653e-11,
-5410000,6.2571e-11,
-5350000,6.3229e-11,
-5290000,6.2994e-11,
-5230000,6.4943e-11,
-5170000,6.4126e-11,
-5110000,6.4725e-11,
-5050000,6.4805e-11,
-4990000,6.5944e-11,
-4930000,6.6198e-11,
-4870000,6.7195e-11,
-4810000,6.6954e-11,
-4750000,6.8668e-11,
-4690000,6.9425e-11,
-4630000,6.774e-11,
-4570000,7.0123e-11,
-4510000,7.1214e-11,
-4450000,7.0972e-11,
-4390000,7.17e-11,
-4330000,7.1661e-11,
-4270000,7.2406e-11,
-4210000,7.3176e-11,
-4150000,7.4454e-11,
-4090000,7.5468e-11,
-4030000,7.6443e-11,
-3970000,7.5942e-11,
-3910000,7.8581e-11,
-3850000,7.8802e-11,
-3790000,7.8143e-11,
-3730000,7.912e-11,
-3670000,7.9636e-11,
-3610000,8.0814e-11,
-3550000,8.1466e-11,
-3490000,8.2643e-11,
-3430000,8.2264e-11,
-3370000,8.4373e-11,
-3310000,8.4187e-11,
-3250000,8.5169e-11,
-3190000,8.6633e-11,
-3130000,8.7904e-11,
-3070000,8.7214e-11,
-3010000,8.6627e-11,
-2950000,8.8062e-11,
-2890000,8.9425e-11,
-2830000,8.9145e-11,
-2770000,9.154e-11,
-2710000,9.3704e-11,
-2650000,9.5454e-11,
-2590000,9.5923e-11,
-2530000,9.7336e-11,
-2470000,9.8235e-11,
-2410000,9.8141e-11,
-2350000,9.9862e-11,
-2290000,9.8924e-11,
-2230000,9.8608e-11,
-2170000,9.9296e-11,
-2110000,9.8614e-11,
-2050000,9.926e-11,
-1990000,1.0053e-10,
-1930000,1.01e-10,
-1870000,1.0057e-10,
-1810000,1.0129e-10,
-1750000,1.0183e-10,
-1690000,1.0409e-10,
-1630000,1.0418e-10,
-1570000,1.0434e-10,
-1510000,1.056e-10,
-1450000,1.0934e-10,
-1390000,1.1376e-10,
-1330000,1.172e-10,
-1270000,1.2337e-10,
-1210000,1.3212e-10,
-1150000,1.4427e-10,
-1090000,1.5747e-10,
-1030000,1.6524e-10,
-970000,1.6707e-10,
-910000,1.6243e-10,
-850000,1.51e-10,
-790000,1.3386e-10,
-730000,1.2075e-10,
-670000,1.1242e-10,
-610000,1.0676e-10,
-550000,1.0246e-10,
-490000,1.0236e-10,
-430000,1.0086e-10,
-370000,1.0015e-10,
-310000,1.0152e-10,
-250000,1.0237e-10,
-190000,1.0349e-10,
-130000,1.0512e-10,
-70000,1.0557e-10,
-10000,1.0777e-10,
50000,1.1064e-10,
110000,1.0917e-10,
170000,1.0878e-10,
230000,1.092e-10,
290000,1.0775e-10,
350000,1.0709e-10,
410000,1.0459e-10,
470000,1.0348e-10,
