General parameters:
Start time: 2023              8             18             14             36      44.353445
Finish time: 2023              8             18             14             42      40.612276
Dwell time (ms): 3000.000000
Source chamber pressure: 2.00e+3
Differential chamber pressure: 7.87e-07
Sample chamber pressure: 3.84e-08
Example position (nm): -2987004.961140,260629.974022,-1000000.000000
Rotation angle (udeg): 120000025.000000
==========
Instrument status: 
0:Data Directory:/icon/data/2023_08_MoS2_5um_hbn_sub/
1:Sample:MoS2
2:Comments:no
3:PinholePlate:#C13
4:z_Zero:4200
5:Operator:djw77/nav31/kw570
==========
zscan inputs: 
z_sep:50000
z_range:200000 -5000000
data_path:/icon/data/2023_08_MoS2_5um_hbn_sub/
example_pos:-2987004.9611      260629.97402          -1000000
N_dwell:200
sampling_period:15
make_plots:1
m1:0.98976
m2:-0.0073571
==========
Detector params:
Sampling period (ms): 15.000000
N dwell: 200.000000
Filament current (A): 1.540000
Filament emission (mA): 1.664172
Solenoid current (A): NaN
Solenoid shim current (A): NaN
Lens params:
0  685
1  300
2  125
3      -0.002
4       -0.01
5       0.012
6         0.8
7         2.1
8         2.8
9  3000
10  1450
11         0.85
12   0
==========
Data:
z(nm),I(A)
200000,4.4365e-11,
100000,4.6068e-11,
0,4.6318e-11,
-100000,4.6593e-11,
-200000,4.5636e-11,
-300000,4.5369e-11,
-400000,4.6156e-11,
-500000,4.9288e-11,
-600000,5.3437e-11,
-700000,6.1519e-11,
-800000,7.9583e-11,
-900000,8.6799e-11,
-1000000,7.6645e-11,
-1100000,6.2941e-11,
-1200000,5.4652e-11,
-1300000,5.0961e-11,
-1400000,4.9664e-11,
-1500000,5.4747e-11,
-1600000,6.3314e-11,
-1700000,7.0612e-11,
-1800000,7.1235e-11,
-1900000,6.6241e-11,
-2000000,5.9817e-11,
-2100000,4.9415e-11,
-2200000,4.6707e-11,
-2300000,4.9e-11,
-2400000,5.4665e-11,
-2500000,6.91e-11,
-2600000,8.3225e-11,
-2700000,8.9297e-11,
-2800000,8.4136e-11,
-2900000,7.1947e-11,
-3000000,5.9689e-11,
-3100000,4.7948e-11,
-3200000,4.2513e-11,
-3300000,4.0475e-11,
-3400000,3.8936e-11,
-3500000,3.8399e-11,
-3600000,3.9157e-11,
-3700000,4.034e-11,
-3800000,3.8652e-11,
-3900000,3.7293e-11,
-4000000,3.4868e-11,
-4100000,3.329e-11,
-4200000,3.1019e-11,
-4300000,2.9669e-11,
-4400000,2.7673e-11,
-4500000,2.6387e-11,
-4600000,2.6528e-11,
-4700000,2.5927e-11,
-4800000,2.4521e-11,
-4900000,2.3753e-11,
-5000000,2.3913e-11,
-4950000,2.3274e-11,
-4850000,2.4648e-11,
-4750000,2.5179e-11,
-4650000,2.5519e-11,
-4550000,2.6331e-11,
-4450000,2.7618e-11,
-4350000,2.9324e-11,
-4250000,3.0256e-11,
-4150000,3.2033e-11,
-4050000,3.3816e-11,
-3950000,3.4895e-11,
-3850000,3.7956e-11,
-3750000,3.9546e-11,
-3650000,3.9846e-11,
-3550000,3.968e-11,
-3450000,3.9241e-11,
-3350000,3.9182e-11,
-3250000,4.0807e-11,
-3150000,4.3505e-11,
-3050000,5.124e-11,
-2950000,6.2927e-11,
-2850000,7.838e-11,
-2750000,8.7454e-11,
-2650000,8.6556e-11,
-2550000,7.824e-11,
-2450000,6.3899e-11,
-2350000,5.3457e-11,
-2250000,4.7246e-11,
-2150000,4.7025e-11,
-2050000,5.2729e-11,
-1950000,6.209e-11,
-1850000,6.9465e-11,
-1750000,7.1513e-11,
-1650000,7.0694e-11,
-1550000,5.9821e-11,
-1450000,5.1619e-11,
-1350000,4.8885e-11,
-1250000,5.1101e-11,
-1150000,5.5877e-11,
-1050000,6.6551e-11,
-950000,8.454e-11,
-850000,8.6628e-11,
-750000,7.1158e-11,
-650000,5.7781e-11,
-550000,5.0316e-11,
-450000,4.7069e-11,
-350000,4.552e-11,
-250000,4.6269e-11,
-150000,4.6327e-11,
-50000,4.5835e-11,
50000,4.5686e-11,
150000,4.5792e-11,
