General parameters:
Start time: 2023              8             17             23             12      32.690396
Finish time: 2023              8             17             23             20      15.615148
Dwell time (ms): 3750.000000
Source chamber pressure: 2.00e+3
Differential chamber pressure: 7.94e-07
Sample chamber pressure: 3.79e-08
Example position (nm): -3697000.000000,587000.000000,-1000000.000000
Rotation angle (udeg): 90000010.000000
==========
Instrument status: 
0:Data Directory:/icon/data/2023_08_MoS2_5um_hbn_sub/
1:Sample:MoS2
2:Comments:no
3:PinholePlate:#C13
4:z_Zero:4200
5:Operator:djw77/nav31/kw570
==========
zscan inputs: 
z_sep:50000
z_range:500000 -5000000
data_path:/icon/data/2023_08_MoS2_5um_hbn_sub/
example_pos:-3697000   587000 -1000000
N_dwell:250
sampling_period:15
make_plots:1
m1:0.98976
m2:-0.0073571
==========
Detector params:
Sampling period (ms): 15.000000
N dwell: 250.000000
Filament current (A): 1.540000
Filament emission (mA): 1.667934
Solenoid current (A): NaN
Solenoid shim current (A): NaN
Lens params:
0  685
1  300
2  125
3      -0.002
4       -0.01
5       0.012
6         0.8
7         2.1
8         2.8
9  3000
10  1450
11         0.85
12   0
==========
Data:
z(nm),I(A)
500000,4.8363e-11,
400000,5.6332e-11,
300000,6.8842e-11,
200000,6.0611e-11,
100000,5.6745e-11,
0,5.0976e-11,
-100000,4.8254e-11,
-200000,4.4721e-11,
-300000,4.4002e-11,
-400000,4.3939e-11,
-500000,4.5728e-11,
-600000,4.8494e-11,
-700000,5.8411e-11,
-800000,8.0627e-11,
-900000,1.0153e-10,
-1000000,1.0994e-10,
-1100000,9.4896e-11,
-1200000,7.5932e-11,
-1300000,6.0911e-11,
-1400000,5.6615e-11,
-1500000,5.5372e-11,
-1600000,5.6704e-11,
-1700000,6.2866e-11,
-1800000,6.5174e-11,
-1900000,6.4295e-11,
-2000000,6.104e-11,
-2100000,5.4408e-11,
-2200000,4.8653e-11,
-2300000,4.5361e-11,
-2400000,4.5249e-11,
-2500000,4.66e-11,
-2600000,4.7575e-11,
-2700000,4.8193e-11,
-2800000,5.0205e-11,
-2900000,4.7955e-11,
-3000000,4.5294e-11,
-3100000,4.2754e-11,
-3200000,4.1007e-11,
-3300000,3.861e-11,
-3400000,3.6905e-11,
-3500000,3.6762e-11,
-3600000,3.6358e-11,
-3700000,3.4474e-11,
-3800000,3.3718e-11,
-3900000,3.3258e-11,
-4000000,3.1763e-11,
-4100000,3.1e-11,
-4200000,2.9866e-11,
-4300000,2.9028e-11,
-4400000,2.9044e-11,
-4500000,2.8318e-11,
-4600000,2.7981e-11,
-4700000,2.6796e-11,
-4800000,2.7288e-11,
-4900000,2.7132e-11,
-5000000,2.6281e-11,
-4950000,2.6607e-11,
-4850000,2.6144e-11,
-4750000,2.6623e-11,
-4650000,2.702e-11,
-4550000,2.8208e-11,
-4450000,2.8007e-11,
-4350000,2.8507e-11,
-4250000,2.9346e-11,
-4150000,2.9365e-11,
-4050000,3.1046e-11,
-3950000,3.2901e-11,
-3850000,3.303e-11,
-3750000,3.4722e-11,
-3650000,3.51e-11,
-3550000,3.469e-11,
-3450000,3.6593e-11,
-3350000,3.7216e-11,
-3250000,3.9011e-11,
-3150000,4.1109e-11,
-3050000,4.3232e-11,
-2950000,4.6196e-11,
-2850000,4.8638e-11,
-2750000,4.8128e-11,
-2650000,4.8262e-11,
-2550000,4.7286e-11,
-2450000,4.6636e-11,
-2350000,4.634e-11,
-2250000,4.7764e-11,
-2150000,5.1248e-11,
-2050000,5.8073e-11,
-1950000,6.3005e-11,
-1850000,6.6769e-11,
-1750000,6.5772e-11,
-1650000,6.164e-11,
-1550000,5.7856e-11,
-1450000,5.7596e-11,
-1350000,5.9416e-11,
-1250000,6.7802e-11,
-1150000,8.8152e-11,
-1050000,1.0682e-10,
-950000,1.0518e-10,
-850000,9.3457e-11,
-750000,6.8178e-11,
-650000,5.4282e-11,
-550000,4.7948e-11,
-450000,4.3999e-11,
-350000,4.4022e-11,
-250000,4.4257e-11,
-150000,4.5539e-11,
-50000,4.7952e-11,
50000,5.2596e-11,
150000,5.8006e-11,
250000,6.2082e-11,
350000,6.164e-11,
450000,5.1972e-11,
