General parameters:
Start time: 2023              8             22              0             39      26.096822
Finish time: 2023              8             22              0             45      22.033377
Dwell time (ms): 3000.000000
Source chamber pressure: 2.00e+3
Differential chamber pressure: 7.97e-07
Sample chamber pressure: 3.78e-08
Example position (nm): -3899458.294681,114866.349136,-1000000.000000
Rotation angle (udeg): 57500395.000000
==========
Instrument status: 
0:Data Directory:/icon/data/2023_08_MoS2_5um_hbn_sub/
1:Sample:MoS2
2:Comments:no
3:PinholePlate:#C13
4:z_Zero:4200
5:Operator:djw77/nav31/kw570
==========
zscan inputs: 
z_sep:50000
z_range:200000 -5000000
data_path:/icon/data/2023_08_MoS2_5um_hbn_sub/
example_pos:-3899458.2947      114866.34914          -1000000
N_dwell:200
sampling_period:15
make_plots:0
m1:0.98976
m2:-0.0073571
==========
Detector params:
Sampling period (ms): 15.000000
N dwell: 200.000000
Filament current (A): 1.540000
Filament emission (mA): 1.749672
Solenoid current (A): NaN
Solenoid shim current (A): NaN
Lens params:
0  685
1  300
2  125
3      -0.002
4       -0.01
5       0.012
6         0.8
7         2.1
8         2.8
9  3000
10  1450
11         0.85
12   0
==========
Data:
z(nm),I(A)
200000,4.0461e-11,
100000,3.9277e-11,
0,3.9263e-11,
-100000,4.0256e-11,
-200000,4.064e-11,
-300000,4.0629e-11,
-400000,4.076e-11,
-500000,4.0901e-11,
-600000,4.1406e-11,
-700000,4.227e-11,
-800000,4.2718e-11,
-900000,4.3222e-11,
-1000000,4.3116e-11,
-1100000,4.354e-11,
-1200000,4.435e-11,
-1300000,4.5499e-11,
-1400000,4.569e-11,
-1500000,4.6056e-11,
-1600000,4.6016e-11,
-1700000,4.5469e-11,
-1800000,4.5622e-11,
-1900000,4.6287e-11,
-2000000,4.5622e-11,
-2100000,4.5714e-11,
-2200000,4.5934e-11,
-2300000,4.4428e-11,
-2400000,4.4849e-11,
-2500000,4.3436e-11,
-2600000,4.3852e-11,
-2700000,4.3381e-11,
-2800000,4.1853e-11,
-2900000,4.0594e-11,
-3000000,4.2115e-11,
-3100000,4.0942e-11,
-3200000,3.9875e-11,
-3300000,4.0017e-11,
-3400000,3.9624e-11,
-3500000,3.815e-11,
-3600000,3.8588e-11,
-3700000,3.697e-11,
-3800000,3.6436e-11,
-3900000,3.5445e-11,
-4000000,3.5477e-11,
-4100000,3.3652e-11,
-4200000,3.3887e-11,
-4300000,3.2667e-11,
-4400000,3.1858e-11,
-4500000,3.2246e-11,
-4600000,3.1339e-11,
-4700000,3.0634e-11,
-4800000,3.0434e-11,
-4900000,3.0266e-11,
-5000000,2.8999e-11,
-4950000,2.981e-11,
-4850000,3.0026e-11,
-4750000,3.0956e-11,
-4650000,3.1549e-11,
-4550000,3.1373e-11,
-4450000,3.2705e-11,
-4350000,3.2031e-11,
-4250000,3.2601e-11,
-4150000,3.3646e-11,
-4050000,3.446e-11,
-3950000,3.5227e-11,
-3850000,3.6132e-11,
-3750000,3.6504e-11,
-3650000,3.7235e-11,
-3550000,3.7467e-11,
-3450000,3.8462e-11,
-3350000,3.8293e-11,
-3250000,3.9789e-11,
-3150000,4.0494e-11,
-3050000,4.1576e-11,
-2950000,4.1665e-11,
-2850000,4.2494e-11,
-2750000,4.2616e-11,
-2650000,4.3601e-11,
-2550000,4.3666e-11,
-2450000,4.4463e-11,
-2350000,4.4381e-11,
-2250000,4.5648e-11,
-2150000,4.5314e-11,
-2050000,4.5738e-11,
-1950000,4.6558e-11,
-1850000,4.5393e-11,
-1750000,4.5387e-11,
-1650000,4.5556e-11,
-1550000,4.6659e-11,
-1450000,4.5428e-11,
-1350000,4.4761e-11,
-1250000,4.4769e-11,
-1150000,4.5118e-11,
-1050000,4.3755e-11,
-950000,4.29e-11,
-850000,4.2714e-11,
-750000,4.2308e-11,
-650000,4.2117e-11,
-550000,4.1783e-11,
-450000,4.0728e-11,
-350000,4.0608e-11,
-250000,4.1326e-11,
-150000,3.9413e-11,
-50000,3.8943e-11,
50000,3.8975e-11,
150000,4.0081e-11,
