General parameters:
Start time: 2023              8             29              5             21      18.515735
Finish time: 2023              8             29              5             28      22.721718
Dwell time (ms): 3000.000000
Source chamber pressure: 2.00e+3
Differential chamber pressure: 6.04e-07
Sample chamber pressure: 3.58e-08
Example position (nm): -3074549.094870,301293.941015,-1000000.000000
Rotation angle (udeg): 114999825.000000
==========
Instrument status: 
0:Data Directory:/icon/data/2023_08_MoS2_5um_hbn_sub/
1:Sample:MoS2
2:Comments:no
3:PinholePlate:#C13
4:z_Zero:4200
5:Operator:djw77/nav31/kw570
==========
zscan inputs: 
z_sep:50000
z_range:200000 -6000000
data_path:/icon/data/2023_08_MoS2_5um_hbn_sub/
example_pos:-3074549.0949      301293.94101          -1000000
N_dwell:200
sampling_period:15
make_plots:1
m1:0.98976
m2:-0.0073571
==========
Detector params:
Sampling period (ms): 15.000000
N dwell: 200.000000
Filament current (A): 1.540000
Filament emission (mA): 1.925802
Solenoid current (A): NaN
Solenoid shim current (A): NaN
Lens params:
0  685
1  300
2  125
3      -0.002
4       -0.01
5       0.012
6         0.8
7         2.1
8         2.8
9  3000
10  1450
11         0.85
12   0
==========
Data:
z(nm),I(A)
200000,6.1455e-11,
100000,6.287e-11,
0,6.2432e-11,
-100000,6.3206e-11,
-200000,6.3221e-11,
-300000,6.4505e-11,
-400000,6.5314e-11,
-500000,6.5571e-11,
-600000,6.7781e-11,
-700000,6.9221e-11,
-800000,7.2306e-11,
-900000,9.2317e-11,
-1000000,8.2334e-11,
-1100000,7.4067e-11,
-1200000,7.1075e-11,
-1300000,6.8478e-11,
-1400000,6.9336e-11,
-1500000,6.9249e-11,
-1600000,7.0906e-11,
-1700000,7.0725e-11,
-1800000,7.1174e-11,
-1900000,7.1682e-11,
-2000000,7.0288e-11,
-2100000,6.6866e-11,
-2200000,6.6172e-11,
-2300000,6.527e-11,
-2400000,6.4861e-11,
-2500000,6.4125e-11,
-2600000,6.369e-11,
-2700000,6.2706e-11,
-2800000,6.251e-11,
-2900000,6.1081e-11,
-3000000,5.9524e-11,
-3100000,5.9e-11,
-3200000,5.8155e-11,
-3300000,5.6116e-11,
-3400000,5.696e-11,
-3500000,5.4949e-11,
-3600000,5.4569e-11,
-3700000,5.3596e-11,
-3800000,5.2274e-11,
-3900000,5.0513e-11,
-4000000,5.1176e-11,
-4100000,4.9914e-11,
-4200000,4.9073e-11,
-4300000,4.9335e-11,
-4400000,4.7756e-11,
-4500000,4.6262e-11,
-4600000,4.4875e-11,
-4700000,4.4431e-11,
-4800000,4.393e-11,
-4900000,4.29e-11,
-5000000,4.2325e-11,
-5100000,4.2005e-11,
-5200000,4.0684e-11,
-5300000,4.0671e-11,
-5400000,3.968e-11,
-5500000,3.9725e-11,
-5600000,3.8934e-11,
-5700000,3.7839e-11,
-5800000,3.7786e-11,
-5900000,3.7066e-11,
-6000000,3.7086e-11,
-5950000,3.6954e-11,
-5850000,3.6953e-11,
-5750000,3.7751e-11,
-5650000,3.7848e-11,
-5550000,3.8786e-11,
-5450000,3.9519e-11,
-5350000,4.0915e-11,
-5250000,4.1615e-11,
-5150000,4.1726e-11,
-5050000,4.2514e-11,
-4950000,4.3729e-11,
-4850000,4.4575e-11,
-4750000,4.4668e-11,
-4650000,4.5819e-11,
-4550000,4.5914e-11,
-4450000,4.7199e-11,
-4350000,4.7707e-11,
-4250000,4.9319e-11,
-4150000,4.985e-11,
-4050000,5.0207e-11,
-3950000,5.149e-11,
-3850000,5.2223e-11,
-3750000,5.3723e-11,
-3650000,5.4869e-11,
-3550000,5.5325e-11,
-3450000,5.5023e-11,
-3350000,5.7475e-11,
-3250000,5.81e-11,
-3150000,5.9257e-11,
-3050000,5.9958e-11,
-2950000,6.076e-11,
-2850000,6.2699e-11,
-2750000,6.4748e-11,
-2650000,6.5884e-11,
-2550000,6.6678e-11,
-2450000,6.8451e-11,
-2350000,6.5537e-11,
-2250000,6.5361e-11,
-2150000,6.8549e-11,
-2050000,6.9915e-11,
-1950000,7.0411e-11,
-1850000,7.3382e-11,
-1750000,7.2946e-11,
-1650000,7.4953e-11,
-1550000,7.092e-11,
-1450000,7.0368e-11,
-1350000,6.9405e-11,
-1250000,7.0358e-11,
-1150000,7.5549e-11,
-1050000,8.1531e-11,
-950000,9.1813e-11,
-850000,9.3914e-11,
-750000,7.3025e-11,
-650000,6.8697e-11,
-550000,6.7812e-11,
-450000,6.5343e-11,
-350000,6.5489e-11,
-250000,6.4146e-11,
-150000,6.422e-11,
-50000,6.486e-11,
50000,6.4224e-11,
150000,6.3804e-11,
