General parameters:
Start time: 2023              8             18             19             27      11.690002
Finish time: 2023              8             18             19             33       8.329528
Dwell time (ms): 3000.000000
Source chamber pressure: 2.00e+3
Differential chamber pressure: 7.94e-07
Sample chamber pressure: 3.84e-08
Example position (nm): -3168165.045380,281425.581188,-1000000.000000
Rotation angle (udeg): 107499815.000000
==========
Instrument status: 
0:Data Directory:/icon/data/2023_08_MoS2_5um_hbn_sub/
1:Sample:MoS2
2:Comments:no
3:PinholePlate:#C13
4:z_Zero:4200
5:Operator:djw77/nav31/kw570
==========
zscan inputs: 
z_sep:50000
z_range:200000 -5000000
data_path:/icon/data/2023_08_MoS2_5um_hbn_sub/
example_pos:-3168165.0454      281425.58119          -1000000
N_dwell:200
sampling_period:15
make_plots:0
m1:0.98976
m2:-0.0073571
==========
Detector params:
Sampling period (ms): 15.000000
N dwell: 200.000000
Filament current (A): 1.540000
Filament emission (mA): 1.666224
Solenoid current (A): NaN
Solenoid shim current (A): NaN
Lens params:
0  685
1  300
2  125
3      -0.002
4       -0.01
5       0.012
6         0.8
7         2.1
8         2.8
9  3000
10  1450
11         0.85
12   0
==========
Data:
z(nm),I(A)
200000,3.9364e-11,
100000,3.9942e-11,
0,4.014e-11,
-100000,4.0305e-11,
-200000,4.077e-11,
-300000,4.0418e-11,
-400000,4.1016e-11,
-500000,4.0795e-11,
-600000,4.0035e-11,
-700000,4.0808e-11,
-800000,4.1102e-11,
-900000,4.2247e-11,
-1000000,4.1045e-11,
-1100000,4.2198e-11,
-1200000,4.1411e-11,
-1300000,4.2795e-11,
-1400000,4.243e-11,
-1500000,4.2592e-11,
-1600000,4.281e-11,
-1700000,4.2696e-11,
-1800000,4.1396e-11,
-1900000,4.2864e-11,
-2000000,4.2777e-11,
-2100000,4.2499e-11,
-2200000,4.1949e-11,
-2300000,4.1994e-11,
-2400000,4.1031e-11,
-2500000,4.1111e-11,
-2600000,3.973e-11,
-2700000,3.8795e-11,
-2800000,3.8843e-11,
-2900000,3.8703e-11,
-3000000,3.8694e-11,
-3100000,3.7844e-11,
-3200000,3.6487e-11,
-3300000,3.6359e-11,
-3400000,3.5431e-11,
-3500000,3.52e-11,
-3600000,3.4576e-11,
-3700000,3.3623e-11,
-3800000,3.2514e-11,
-3900000,3.2435e-11,
-4000000,3.1955e-11,
-4100000,3.1224e-11,
-4200000,3.0806e-11,
-4300000,2.9803e-11,
-4400000,2.8958e-11,
-4500000,2.9066e-11,
-4600000,2.8161e-11,
-4700000,2.8062e-11,
-4800000,2.8051e-11,
-4900000,2.7777e-11,
-5000000,2.7357e-11,
-4950000,2.6762e-11,
-4850000,2.7653e-11,
-4750000,2.7621e-11,
-4650000,2.785e-11,
-4550000,2.9534e-11,
-4450000,2.9793e-11,
-4350000,2.9517e-11,
-4250000,3.0025e-11,
-4150000,3.0584e-11,
-4050000,3.1892e-11,
-3950000,3.2227e-11,
-3850000,3.201e-11,
-3750000,3.4079e-11,
-3650000,3.4176e-11,
-3550000,3.5601e-11,
-3450000,3.5347e-11,
-3350000,3.4454e-11,
-3250000,3.6735e-11,
-3150000,3.7444e-11,
-3050000,3.727e-11,
-2950000,3.7817e-11,
-2850000,3.7892e-11,
-2750000,3.9078e-11,
-2650000,3.9251e-11,
-2550000,3.9539e-11,
-2450000,4.0435e-11,
-2350000,3.9705e-11,
-2250000,4.1801e-11,
-2150000,4.144e-11,
-2050000,4.2658e-11,
-1950000,4.2079e-11,
-1850000,4.2671e-11,
-1750000,4.2274e-11,
-1650000,4.3299e-11,
-1550000,4.2608e-11,
-1450000,4.2645e-11,
-1350000,4.3355e-11,
-1250000,4.2137e-11,
-1150000,4.2696e-11,
-1050000,4.1742e-11,
-950000,4.2617e-11,
-850000,4.2086e-11,
-750000,4.1642e-11,
-650000,4.2175e-11,
-550000,4.0519e-11,
-450000,4.0203e-11,
-350000,4.1414e-11,
-250000,4.0236e-11,
-150000,3.9794e-11,
-50000,4.0973e-11,
50000,3.9911e-11,
150000,3.9398e-11,
