General parameters:
Start time: 2023              8             23             13             29      25.829038
Finish time: 2023              8             23             13             35      23.870581
Dwell time (ms): 3000.000000
Source chamber pressure: 2.00e+3
Differential chamber pressure: 7.72e-07
Sample chamber pressure: 3.79e-08
Example position (nm): -3322019.235006,326027.883685,-1000000.000000
Rotation angle (udeg): 100000130.000000
==========
Instrument status: 
0:Data Directory:/icon/data/2023_08_MoS2_5um_hbn_sub/
1:Sample:MoS2
2:Comments:no
3:PinholePlate:#C13
4:z_Zero:4200
5:Operator:djw77/nav31/kw570
==========
zscan inputs: 
z_sep:50000
z_range:200000 -5000000
data_path:/icon/data/2023_08_MoS2_5um_hbn_sub/
example_pos:-3322019.235      326027.88369          -1000000
N_dwell:200
sampling_period:15
make_plots:1
m1:0.98976
m2:-0.0073571
==========
Detector params:
Sampling period (ms): 15.000000
N dwell: 200.000000
Filament current (A): 1.540000
Filament emission (mA): 1.769508
Solenoid current (A): NaN
Solenoid shim current (A): NaN
Lens params:
0  685
1  300
2  125
3      -0.002
4       -0.01
5       0.012
6         0.8
7         2.1
8         2.8
9  3000
10  1450
11         0.85
12   0
==========
Data:
z(nm),I(A)
200000,4.4632e-11,
100000,4.4901e-11,
0,4.7781e-11,
-100000,4.6956e-11,
-200000,5.2007e-11,
-300000,5.3647e-11,
-400000,4.8608e-11,
-500000,4.5545e-11,
-600000,4.5584e-11,
-700000,4.4103e-11,
-800000,4.6748e-11,
-900000,5.0202e-11,
-1000000,4.9125e-11,
-1100000,5.3856e-11,
-1200000,5.0127e-11,
-1300000,5.1927e-11,
-1400000,4.8379e-11,
-1500000,5.0587e-11,
-1600000,5.5295e-11,
-1700000,5.2449e-11,
-1800000,4.9655e-11,
-1900000,4.4089e-11,
-2000000,4.1833e-11,
-2100000,4.2344e-11,
-2200000,4.0983e-11,
-2300000,4.1366e-11,
-2400000,4.0497e-11,
-2500000,3.9888e-11,
-2600000,3.9647e-11,
-2700000,4.0053e-11,
-2800000,3.8608e-11,
-2900000,3.7691e-11,
-3000000,3.5936e-11,
-3100000,3.7034e-11,
-3200000,3.6275e-11,
-3300000,3.596e-11,
-3400000,3.5289e-11,
-3500000,3.4577e-11,
-3600000,3.3229e-11,
-3700000,3.3061e-11,
-3800000,3.3059e-11,
-3900000,3.2039e-11,
-4000000,3.222e-11,
-4100000,3.1377e-11,
-4200000,3.0429e-11,
-4300000,2.9809e-11,
-4400000,2.8471e-11,
-4500000,2.9501e-11,
-4600000,2.8352e-11,
-4700000,2.6832e-11,
-4800000,2.6752e-11,
-4900000,2.6256e-11,
-5000000,2.6186e-11,
-4950000,2.6503e-11,
-4850000,2.7196e-11,
-4750000,2.7724e-11,
-4650000,2.7692e-11,
-4550000,2.8039e-11,
-4450000,2.8943e-11,
-4350000,2.9511e-11,
-4250000,3.0033e-11,
-4150000,3.0548e-11,
-4050000,3.1114e-11,
-3950000,3.2014e-11,
-3850000,3.3123e-11,
-3750000,3.231e-11,
-3650000,3.3914e-11,
-3550000,3.4931e-11,
-3450000,3.4949e-11,
-3350000,3.6071e-11,
-3250000,3.7131e-11,
-3150000,3.714e-11,
-3050000,3.7572e-11,
-2950000,3.8068e-11,
-2850000,3.8293e-11,
-2750000,3.9831e-11,
-2650000,4.0172e-11,
-2550000,4.0898e-11,
-2450000,4.158e-11,
-2350000,4.1185e-11,
-2250000,4.225e-11,
-2150000,4.135e-11,
-2050000,4.2164e-11,
-1950000,4.2349e-11,
-1850000,4.3709e-11,
-1750000,4.5972e-11,
-1650000,4.7825e-11,
-1550000,4.7918e-11,
-1450000,4.5626e-11,
-1350000,4.4855e-11,
-1250000,4.987e-11,
-1150000,5.1647e-11,
-1050000,5.2173e-11,
-950000,5.6901e-11,
-850000,5.3819e-11,
-750000,4.4338e-11,
-650000,4.5098e-11,
-550000,4.4143e-11,
-450000,4.289e-11,
-350000,4.69e-11,
-250000,5.0155e-11,
-150000,4.6848e-11,
-50000,4.5119e-11,
50000,4.6312e-11,
150000,4.4566e-11,
