General parameters:
Start time: 2023              8             29              5             42      47.610602
Finish time: 2023              8             29              5             49      51.215583
Dwell time (ms): 3000.000000
Source chamber pressure: 2.00e+3
Differential chamber pressure: 6.03e-07
Sample chamber pressure: 3.52e-08
Example position (nm): -2954269.373564,257065.350382,-1000000.000000
Rotation angle (udeg): 122499865.000000
==========
Instrument status: 
0:Data Directory:/icon/data/2023_08_MoS2_5um_hbn_sub/
1:Sample:MoS2
2:Comments:no
3:PinholePlate:#C13
4:z_Zero:4200
5:Operator:djw77/nav31/kw570
==========
zscan inputs: 
z_sep:50000
z_range:200000 -6000000
data_path:/icon/data/2023_08_MoS2_5um_hbn_sub/
example_pos:-2954269.3736      257065.35038          -1000000
N_dwell:200
sampling_period:15
make_plots:1
m1:0.98976
m2:-0.0073571
==========
Detector params:
Sampling period (ms): 15.000000
N dwell: 200.000000
Filament current (A): 1.540000
Filament emission (mA): 1.926144
Solenoid current (A): NaN
Solenoid shim current (A): NaN
Lens params:
0  685
1  300
2  125
3      -0.002
4       -0.01
5       0.012
6         0.8
7         2.1
8         2.8
9  3000
10  1450
11         0.85
12   0
==========
Data:
z(nm),I(A)
200000,8.2317e-11,
100000,8.3278e-11,
0,8.3097e-11,
-100000,8.1773e-11,
-200000,7.9111e-11,
-300000,7.9316e-11,
-400000,8.0486e-11,
-500000,8.5847e-11,
-600000,1.0013e-10,
-700000,1.2011e-10,
-800000,1.4545e-10,
-900000,1.5277e-10,
-1000000,1.3495e-10,
-1100000,1.1323e-10,
-1200000,9.6417e-11,
-1300000,8.9864e-11,
-1400000,8.8725e-11,
-1500000,9.6904e-11,
-1600000,1.14e-10,
-1700000,1.3387e-10,
-1800000,1.4046e-10,
-1900000,1.3183e-10,
-2000000,1.0855e-10,
-2100000,8.835e-11,
-2200000,8.3195e-11,
-2300000,8.566e-11,
-2400000,1.0125e-10,
-2500000,1.2722e-10,
-2600000,1.5031e-10,
-2700000,1.6526e-10,
-2800000,1.6021e-10,
-2900000,1.4261e-10,
-3000000,1.1703e-10,
-3100000,9.2335e-11,
-3200000,8.1169e-11,
-3300000,7.4478e-11,
-3400000,7.4214e-11,
-3500000,7.6829e-11,
-3600000,8.097e-11,
-3700000,8.4167e-11,
-3800000,8.5159e-11,
-3900000,8.1216e-11,
-4000000,7.6467e-11,
-4100000,6.8018e-11,
-4200000,6.1477e-11,
-4300000,5.5753e-11,
-4400000,5.2263e-11,
-4500000,4.8828e-11,
-4600000,4.6798e-11,
-4700000,4.5244e-11,
-4800000,4.332e-11,
-4900000,4.2737e-11,
-5000000,4.1894e-11,
-5100000,4.1566e-11,
-5200000,4.1196e-11,
-5300000,3.9197e-11,
-5400000,3.8514e-11,
-5500000,3.7386e-11,
-5600000,3.6606e-11,
-5700000,3.4836e-11,
-5800000,3.54e-11,
-5900000,3.476e-11,
-6000000,3.3197e-11,
-5950000,3.3691e-11,
-5850000,3.398e-11,
-5750000,3.4278e-11,
-5650000,3.5803e-11,
-5550000,3.6466e-11,
-5450000,3.737e-11,
-5350000,3.9178e-11,
-5250000,3.9413e-11,
-5150000,4.155e-11,
-5050000,4.1164e-11,
-4950000,4.2585e-11,
-4850000,4.2401e-11,
-4750000,4.3961e-11,
-4650000,4.5466e-11,
-4550000,4.6771e-11,
-4450000,4.9269e-11,
-4350000,5.1506e-11,
-4250000,5.6189e-11,
-4150000,6.2788e-11,
-4050000,7.1007e-11,
-3950000,7.9345e-11,
-3850000,8.4033e-11,
-3750000,8.5726e-11,
-3650000,8.2912e-11,
-3550000,7.8803e-11,
-3450000,7.4676e-11,
-3350000,7.2753e-11,
-3250000,7.5292e-11,
-3150000,8.2195e-11,
-3050000,1.0088e-10,
-2950000,1.2972e-10,
-2850000,1.5683e-10,
-2750000,1.6595e-10,
-2650000,1.6606e-10,
-2550000,1.4633e-10,
-2450000,1.1983e-10,
-2350000,9.7155e-11,
-2250000,8.6015e-11,
-2150000,8.452e-11,
-2050000,9.8136e-11,
-1950000,1.2574e-10,
-1850000,1.4511e-10,
-1750000,1.4499e-10,
-1650000,1.3322e-10,
-1550000,1.0906e-10,
-1450000,9.2622e-11,
-1350000,8.9159e-11,
-1250000,9.3894e-11,
-1150000,1.0526e-10,
-1050000,1.2079e-10,
-950000,1.4853e-10,
-850000,1.563e-10,
-750000,1.413e-10,
-650000,1.1446e-10,
-550000,9.3274e-11,
-450000,8.474e-11,
-350000,8.1363e-11,
-250000,8.0184e-11,
-150000,8.1576e-11,
-50000,8.1129e-11,
50000,8.3137e-11,
150000,8.3534e-11,
