General parameters:
Start time: 2023              8             28              1             45        2.96137
Finish time: 2023              8             28              1             50      58.527678
Dwell time (ms): 3000.000000
Source chamber pressure: 2.00e+3
Differential chamber pressure: 6.36e-07
Sample chamber pressure: 3.62e-08
Example position (nm): -4112152.529842,-112197.361294,-1000000.000000
Rotation angle (udeg): 42500105.000000
==========
Instrument status: 
0:Data Directory:/icon/data/2023_08_MoS2_5um_hbn_sub/
1:Sample:MoS2
2:Comments:no
3:PinholePlate:#C13
4:z_Zero:4200
5:Operator:djw77/nav31/kw570
==========
zscan inputs: 
z_sep:50000
z_range:200000 -5000000
data_path:/icon/data/2023_08_MoS2_5um_hbn_sub/
example_pos:-4112152.5298     -112197.36129          -1000000
N_dwell:200
sampling_period:15
make_plots:1
m1:0.98976
m2:-0.0073571
==========
Detector params:
Sampling period (ms): 15.000000
N dwell: 200.000000
Filament current (A): 1.540000
Filament emission (mA): 1.899810
Solenoid current (A): NaN
Solenoid shim current (A): NaN
Lens params:
0  685
1  300
2  125
3      -0.002
4       -0.01
5       0.012
6         0.8
7         2.1
8         2.8
9  3000
10  1450
11         0.85
12   0
==========
Data:
z(nm),I(A)
200000,4.2468e-11,
100000,4.2338e-11,
0,4.2032e-11,
-100000,4.1682e-11,
-200000,4.3651e-11,
-300000,4.3163e-11,
-400000,4.442e-11,
-500000,4.4329e-11,
-600000,4.5577e-11,
-700000,4.6788e-11,
-800000,4.5607e-11,
-900000,4.6294e-11,
-1000000,4.7055e-11,
-1100000,4.6899e-11,
-1200000,4.8095e-11,
-1300000,4.8286e-11,
-1400000,4.9061e-11,
-1500000,4.8769e-11,
-1600000,5.058e-11,
-1700000,4.9513e-11,
-1800000,4.9629e-11,
-1900000,4.9561e-11,
-2000000,4.909e-11,
-2100000,4.9642e-11,
-2200000,4.867e-11,
-2300000,4.7997e-11,
-2400000,4.9046e-11,
-2500000,4.7656e-11,
-2600000,4.7692e-11,
-2700000,4.6196e-11,
-2800000,4.6561e-11,
-2900000,4.524e-11,
-3000000,4.4766e-11,
-3100000,4.3492e-11,
-3200000,4.2433e-11,
-3300000,4.3329e-11,
-3400000,4.2446e-11,
-3500000,4.1104e-11,
-3600000,4.1128e-11,
-3700000,3.9969e-11,
-3800000,3.9332e-11,
-3900000,3.8963e-11,
-4000000,3.8584e-11,
-4100000,3.6864e-11,
-4200000,3.7491e-11,
-4300000,3.6072e-11,
-4400000,3.5207e-11,
-4500000,3.4019e-11,
-4600000,3.4469e-11,
-4700000,3.2628e-11,
-4800000,3.2955e-11,
-4900000,3.2453e-11,
-5000000,3.163e-11,
-4950000,3.2123e-11,
-4850000,3.3174e-11,
-4750000,3.3267e-11,
-4650000,3.4479e-11,
-4550000,3.4957e-11,
-4450000,3.5412e-11,
-4350000,3.5579e-11,
-4250000,3.6358e-11,
-4150000,3.7809e-11,
-4050000,3.7303e-11,
-3950000,3.8701e-11,
-3850000,3.8155e-11,
-3750000,3.9163e-11,
-3650000,4.0216e-11,
-3550000,4.0573e-11,
-3450000,4.1489e-11,
-3350000,4.1024e-11,
-3250000,4.2853e-11,
-3150000,4.3565e-11,
-3050000,4.5458e-11,
-2950000,4.5986e-11,
-2850000,4.57e-11,
-2750000,4.6493e-11,
-2650000,4.6628e-11,
-2550000,4.7431e-11,
-2450000,4.8237e-11,
-2350000,4.7656e-11,
-2250000,4.805e-11,
-2150000,5.0488e-11,
-2050000,4.9302e-11,
-1950000,4.9241e-11,
-1850000,5.0286e-11,
-1750000,4.908e-11,
-1650000,4.9998e-11,
-1550000,4.9541e-11,
-1450000,4.8872e-11,
-1350000,4.8497e-11,
-1250000,4.8232e-11,
-1150000,4.8879e-11,
-1050000,4.7512e-11,
-950000,4.7126e-11,
-850000,4.5784e-11,
-750000,4.5761e-11,
-650000,4.6316e-11,
-550000,4.4894e-11,
-450000,4.4518e-11,
-350000,4.3604e-11,
-250000,4.3435e-11,
-150000,4.3697e-11,
-50000,4.2434e-11,
50000,4.2267e-11,
150000,4.1983e-11,
