General parameters:
Start time: 2023              8             23             14             29      48.880193
Finish time: 2023              8             23             14             35      44.705288
Dwell time (ms): 3000.000000
Source chamber pressure: 2.00e+3
Differential chamber pressure: 7.73e-07
Sample chamber pressure: 3.84e-08
Example position (nm): -2676282.443038,9359.135517,-1000000.000000
Rotation angle (udeg): 149999980.000000
==========
Instrument status: 
0:Data Directory:/icon/data/2023_08_MoS2_5um_hbn_sub/
1:Sample:MoS2
2:Comments:no
3:PinholePlate:#C13
4:z_Zero:4200
5:Operator:djw77/nav31/kw570
==========
zscan inputs: 
z_sep:50000
z_range:200000 -5000000
data_path:/icon/data/2023_08_MoS2_5um_hbn_sub/
example_pos:-2676282.443      9359.1355169          -1000000
N_dwell:200
sampling_period:15
make_plots:1
m1:0.98976
m2:-0.0073571
==========
Detector params:
Sampling period (ms): 15.000000
N dwell: 200.000000
Filament current (A): 1.540000
Filament emission (mA): 1.761300
Solenoid current (A): NaN
Solenoid shim current (A): NaN
Lens params:
0  685
1  300
2  125
3      -0.002
4       -0.01
5       0.012
6         0.8
7         2.1
8         2.8
9  3000
10  1450
11         0.85
12   0
==========
Data:
z(nm),I(A)
200000,3.997e-11,
100000,4.1427e-11,
0,4.1829e-11,
-100000,4.1297e-11,
-200000,4.178e-11,
-300000,4.1792e-11,
-400000,4.1893e-11,
-500000,4.2104e-11,
-600000,4.2216e-11,
-700000,4.3242e-11,
-800000,4.207e-11,
-900000,4.1884e-11,
-1000000,4.2693e-11,
-1100000,4.3104e-11,
-1200000,4.2266e-11,
-1300000,4.3659e-11,
-1400000,4.3878e-11,
-1500000,4.3254e-11,
-1600000,4.2982e-11,
-1700000,4.2583e-11,
-1800000,4.4599e-11,
-1900000,4.2678e-11,
-2000000,4.3392e-11,
-2100000,4.2903e-11,
-2200000,4.1673e-11,
-2300000,4.2362e-11,
-2400000,4.1946e-11,
-2500000,4.0192e-11,
-2600000,4.0992e-11,
-2700000,3.9682e-11,
-2800000,3.8816e-11,
-2900000,3.9268e-11,
-3000000,3.9442e-11,
-3100000,3.7858e-11,
-3200000,3.7047e-11,
-3300000,3.6927e-11,
-3400000,3.6708e-11,
-3500000,3.6234e-11,
-3600000,3.4306e-11,
-3700000,3.4888e-11,
-3800000,3.451e-11,
-3900000,3.376e-11,
-4000000,3.2526e-11,
-4100000,3.183e-11,
-4200000,3.0912e-11,
-4300000,2.9554e-11,
-4400000,3.0377e-11,
-4500000,2.9588e-11,
-4600000,2.9099e-11,
-4700000,2.9618e-11,
-4800000,2.8842e-11,
-4900000,2.7478e-11,
-5000000,2.6838e-11,
-4950000,2.7869e-11,
-4850000,2.7573e-11,
-4750000,2.8094e-11,
-4650000,2.8628e-11,
-4550000,2.9391e-11,
-4450000,2.9998e-11,
-4350000,3.0652e-11,
-4250000,3.0611e-11,
-4150000,3.0668e-11,
-4050000,3.2109e-11,
-3950000,3.3076e-11,
-3850000,3.3491e-11,
-3750000,3.4422e-11,
-3650000,3.5211e-11,
-3550000,3.5204e-11,
-3450000,3.5072e-11,
-3350000,3.6044e-11,
-3250000,3.6601e-11,
-3150000,3.7862e-11,
-3050000,3.9069e-11,
-2950000,3.8458e-11,
-2850000,4.0442e-11,
-2750000,4.0957e-11,
-2650000,4.0192e-11,
-2550000,4.2055e-11,
-2450000,4.098e-11,
-2350000,4.1337e-11,
-2250000,4.1714e-11,
-2150000,4.1913e-11,
-2050000,4.3865e-11,
-1950000,4.2933e-11,
-1850000,4.266e-11,
-1750000,4.279e-11,
-1650000,4.2385e-11,
-1550000,4.2735e-11,
-1450000,4.3262e-11,
-1350000,4.3591e-11,
-1250000,4.2569e-11,
-1150000,4.1947e-11,
-1050000,4.2353e-11,
-950000,4.3781e-11,
-850000,4.3416e-11,
-750000,4.2543e-11,
-650000,4.2091e-11,
-550000,4.1089e-11,
-450000,4.2798e-11,
-350000,4.1809e-11,
-250000,4.0712e-11,
-150000,4.1804e-11,
-50000,4.1846e-11,
50000,4.0726e-11,
150000,4.129e-11,
