General parameters:
Start time: 2023              8             28              5             28       8.800348
Finish time: 2023              8             28              5             34       5.162525
Dwell time (ms): 3000.000000
Source chamber pressure: 2.00e+3
Differential chamber pressure: 6.32e-07
Sample chamber pressure: 3.62e-08
Example position (nm): -2754158.792203,156593.552370,-1000000.000000
Rotation angle (udeg): 135000130.000000
==========
Instrument status: 
0:Data Directory:/icon/data/2023_08_MoS2_5um_hbn_sub/
1:Sample:MoS2
2:Comments:no
3:PinholePlate:#C13
4:z_Zero:4200
5:Operator:djw77/nav31/kw570
==========
zscan inputs: 
z_sep:50000
z_range:200000 -5000000
data_path:/icon/data/2023_08_MoS2_5um_hbn_sub/
example_pos:-2754158.7922      156593.55237          -1000000
N_dwell:200
sampling_period:15
make_plots:1
m1:0.98976
m2:-0.0073571
==========
Detector params:
Sampling period (ms): 15.000000
N dwell: 200.000000
Filament current (A): 1.540000
Filament emission (mA): 1.904256
Solenoid current (A): NaN
Solenoid shim current (A): NaN
Lens params:
0  685
1  300
2  125
3      -0.002
4       -0.01
5       0.012
6         0.8
7         2.1
8         2.8
9  3000
10  1450
11         0.85
12   0
==========
Data:
z(nm),I(A)
200000,9.827e-11,
100000,9.0614e-11,
0,8.117e-11,
-100000,7.3689e-11,
-200000,6.8918e-11,
-300000,6.5102e-11,
-400000,6.5597e-11,
-500000,7.203e-11,
-600000,8.5685e-11,
-700000,1.1124e-10,
-800000,1.4083e-10,
-900000,1.2607e-10,
-1000000,1.0458e-10,
-1100000,8.372e-11,
-1200000,7.296e-11,
-1300000,6.4886e-11,
-1400000,6.3586e-11,
-1500000,6.4163e-11,
-1600000,6.6506e-11,
-1700000,6.9182e-11,
-1800000,6.8344e-11,
-1900000,6.4727e-11,
-2000000,6.0017e-11,
-2100000,5.9597e-11,
-2200000,5.8981e-11,
-2300000,5.8593e-11,
-2400000,6.0031e-11,
-2500000,6.1869e-11,
-2600000,6.1291e-11,
-2700000,6.1496e-11,
-2800000,5.9193e-11,
-2900000,5.8809e-11,
-3000000,5.6716e-11,
-3100000,5.5128e-11,
-3200000,5.3684e-11,
-3300000,5.2598e-11,
-3400000,5.0858e-11,
-3500000,4.7874e-11,
-3600000,4.5773e-11,
-3700000,4.4013e-11,
-3800000,4.2764e-11,
-3900000,4.0298e-11,
-4000000,3.9346e-11,
-4100000,3.8801e-11,
-4200000,3.8949e-11,
-4300000,3.6845e-11,
-4400000,3.5805e-11,
-4500000,3.5889e-11,
-4600000,3.4644e-11,
-4700000,3.3697e-11,
-4800000,3.2705e-11,
-4900000,3.0773e-11,
-5000000,2.976e-11,
-4950000,3.0893e-11,
-4850000,3.1577e-11,
-4750000,3.3113e-11,
-4650000,3.2979e-11,
-4550000,3.4946e-11,
-4450000,3.6531e-11,
-4350000,3.6573e-11,
-4250000,3.7407e-11,
-4150000,3.7689e-11,
-4050000,3.9692e-11,
-3950000,4.072e-11,
-3850000,4.0963e-11,
-3750000,4.2907e-11,
-3650000,4.428e-11,
-3550000,4.6901e-11,
-3450000,4.9124e-11,
-3350000,5.1326e-11,
-3250000,5.355e-11,
-3150000,5.3926e-11,
-3050000,5.6309e-11,
-2950000,5.6405e-11,
-2850000,6.0027e-11,
-2750000,6.1586e-11,
-2650000,6.3345e-11,
-2550000,6.3396e-11,
-2450000,6.2063e-11,
-2350000,6.0552e-11,
-2250000,5.9389e-11,
-2150000,5.8751e-11,
-2050000,5.8967e-11,
-1950000,6.2417e-11,
-1850000,6.7429e-11,
-1750000,7.0004e-11,
-1650000,6.9172e-11,
-1550000,6.6875e-11,
-1450000,6.4876e-11,
-1350000,6.4205e-11,
-1250000,6.9247e-11,
-1150000,7.8079e-11,
-1050000,8.866e-11,
-950000,1.1187e-10,
-850000,1.3317e-10,
-750000,1.3007e-10,
-650000,9.9213e-11,
-550000,7.8468e-11,
-450000,6.8865e-11,
-350000,6.4379e-11,
-250000,6.5167e-11,
-150000,6.969e-11,
-50000,7.5258e-11,
50000,8.3281e-11,
150000,9.192e-11,
