General parameters:
Start time: 2023              8             23             14             11      42.991289
Finish time: 2023              8             23             14             17      38.972249
Dwell time (ms): 3000.000000
Source chamber pressure: 2.00e+3
Differential chamber pressure: 7.73e-07
Sample chamber pressure: 3.84e-08
Example position (nm): -2837078.449426,162607.791313,-1000000.000000
Rotation angle (udeg): 134999975.000000
==========
Instrument status: 
0:Data Directory:/icon/data/2023_08_MoS2_5um_hbn_sub/
1:Sample:MoS2
2:Comments:no
3:PinholePlate:#C13
4:z_Zero:4200
5:Operator:djw77/nav31/kw570
==========
zscan inputs: 
z_sep:50000
z_range:200000 -5000000
data_path:/icon/data/2023_08_MoS2_5um_hbn_sub/
example_pos:-2837078.4494      162607.79131          -1000000
N_dwell:200
sampling_period:15
make_plots:1
m1:0.98976
m2:-0.0073571
==========
Detector params:
Sampling period (ms): 15.000000
N dwell: 200.000000
Filament current (A): 1.540000
Filament emission (mA): 1.763694
Solenoid current (A): NaN
Solenoid shim current (A): NaN
Lens params:
0  685
1  300
2  125
3      -0.002
4       -0.01
5       0.012
6         0.8
7         2.1
8         2.8
9  3000
10  1450
11         0.85
12   0
==========
Data:
z(nm),I(A)
200000,3.9919e-11,
100000,4.0419e-11,
0,4.0445e-11,
-100000,4.0246e-11,
-200000,4.1707e-11,
-300000,3.9976e-11,
-400000,4.2025e-11,
-500000,4.1392e-11,
-600000,4.1653e-11,
-700000,4.1475e-11,
-800000,4.2097e-11,
-900000,4.2819e-11,
-1000000,4.3238e-11,
-1100000,4.3014e-11,
-1200000,4.3055e-11,
-1300000,4.218e-11,
-1400000,4.4378e-11,
-1500000,4.3742e-11,
-1600000,4.3173e-11,
-1700000,4.2767e-11,
-1800000,4.3612e-11,
-1900000,4.3037e-11,
-2000000,4.2093e-11,
-2100000,4.2237e-11,
-2200000,4.213e-11,
-2300000,4.0865e-11,
-2400000,4.1477e-11,
-2500000,4.0469e-11,
-2600000,4.047e-11,
-2700000,4.0268e-11,
-2800000,3.9296e-11,
-2900000,3.848e-11,
-3000000,3.8452e-11,
-3100000,3.7275e-11,
-3200000,3.7249e-11,
-3300000,3.6187e-11,
-3400000,3.5356e-11,
-3500000,3.5047e-11,
-3600000,3.4128e-11,
-3700000,3.3875e-11,
-3800000,3.2407e-11,
-3900000,3.2562e-11,
-4000000,3.2002e-11,
-4100000,3.2307e-11,
-4200000,3.0608e-11,
-4300000,3.0109e-11,
-4400000,3.0536e-11,
-4500000,2.9398e-11,
-4600000,2.9105e-11,
-4700000,2.9005e-11,
-4800000,2.8287e-11,
-4900000,2.7182e-11,
-5000000,2.7451e-11,
-4950000,2.6596e-11,
-4850000,2.7598e-11,
-4750000,2.8e-11,
-4650000,2.8353e-11,
-4550000,2.8922e-11,
-4450000,2.9554e-11,
-4350000,3.0824e-11,
-4250000,3.0767e-11,
-4150000,3.1145e-11,
-4050000,3.1657e-11,
-3950000,3.2274e-11,
-3850000,3.2867e-11,
-3750000,3.3061e-11,
-3650000,3.4993e-11,
-3550000,3.4986e-11,
-3450000,3.5363e-11,
-3350000,3.6969e-11,
-3250000,3.6908e-11,
-3150000,3.6753e-11,
-3050000,3.709e-11,
-2950000,3.8574e-11,
-2850000,3.9482e-11,
-2750000,3.8847e-11,
-2650000,3.9427e-11,
-2550000,4.1398e-11,
-2450000,4.053e-11,
-2350000,4.1337e-11,
-2250000,4.2147e-11,
-2150000,4.2595e-11,
-2050000,4.226e-11,
-1950000,4.3797e-11,
-1850000,4.2704e-11,
-1750000,4.3727e-11,
-1650000,4.2371e-11,
-1550000,4.3197e-11,
-1450000,4.2153e-11,
-1350000,4.3125e-11,
-1250000,4.3135e-11,
-1150000,4.3368e-11,
-1050000,4.3107e-11,
-950000,4.2367e-11,
-850000,4.1754e-11,
-750000,4.277e-11,
-650000,4.2775e-11,
-550000,4.2024e-11,
-450000,4.1408e-11,
-350000,4.1575e-11,
-250000,4.0414e-11,
-150000,4.1189e-11,
-50000,4.1262e-11,
50000,4.0539e-11,
150000,3.9886e-11,
