General parameters:
Start time: 2023              8             22             12              6      36.649863
Finish time: 2023              8             22             12             12       31.18081
Dwell time (ms): 3000.000000
Source chamber pressure: 2.00e+3
Differential chamber pressure: 7.97e-07
Sample chamber pressure: 3.84e-08
Example position (nm): -3620842.712459,214151.859175,-1000000.000000
Rotation angle (udeg): 75000085.000000
==========
Instrument status: 
0:Data Directory:/icon/data/2023_08_MoS2_5um_hbn_sub/
1:Sample:MoS2
2:Comments:no
3:PinholePlate:#C13
4:z_Zero:4200
5:Operator:djw77/nav31/kw570
==========
zscan inputs: 
z_sep:50000
z_range:200000 -5000000
data_path:/icon/data/2023_08_MoS2_5um_hbn_sub/
example_pos:-3620842.7125      214151.85917          -1000000
N_dwell:200
sampling_period:15
make_plots:0
m1:0.98976
m2:-0.0073571
==========
Detector params:
Sampling period (ms): 15.000000
N dwell: 200.000000
Filament current (A): 1.540000
Filament emission (mA): 1.740438
Solenoid current (A): NaN
Solenoid shim current (A): NaN
Lens params:
0  685
1  300
2  125
3      -0.002
4       -0.01
5       0.012
6         0.8
7         2.1
8         2.8
9  3000
10  1450
11         0.85
12   0
==========
Data:
z(nm),I(A)
200000,4.2094e-11,
100000,4.2811e-11,
0,4.2056e-11,
-100000,4.1777e-11,
-200000,4.2716e-11,
-300000,4.1782e-11,
-400000,4.2611e-11,
-500000,4.4355e-11,
-600000,4.3936e-11,
-700000,4.451e-11,
-800000,4.4183e-11,
-900000,4.6383e-11,
-1000000,4.5732e-11,
-1100000,4.6302e-11,
-1200000,4.6876e-11,
-1300000,4.6403e-11,
-1400000,4.7778e-11,
-1500000,4.6746e-11,
-1600000,4.7751e-11,
-1700000,4.7875e-11,
-1800000,4.8159e-11,
-1900000,4.7209e-11,
-2000000,4.7427e-11,
-2100000,4.7232e-11,
-2200000,4.7902e-11,
-2300000,4.6484e-11,
-2400000,4.6848e-11,
-2500000,4.6343e-11,
-2600000,4.5647e-11,
-2700000,4.5722e-11,
-2800000,4.4977e-11,
-2900000,4.3788e-11,
-3000000,4.3284e-11,
-3100000,4.2853e-11,
-3200000,4.2647e-11,
-3300000,4.169e-11,
-3400000,3.9407e-11,
-3500000,3.9455e-11,
-3600000,3.9321e-11,
-3700000,3.8799e-11,
-3800000,3.7247e-11,
-3900000,3.7415e-11,
-4000000,3.7849e-11,
-4100000,3.5197e-11,
-4200000,3.6475e-11,
-4300000,3.4694e-11,
-4400000,3.3772e-11,
-4500000,3.363e-11,
-4600000,3.2421e-11,
-4700000,3.1672e-11,
-4800000,3.2221e-11,
-4900000,3.0867e-11,
-5000000,3.0445e-11,
-4950000,3.0651e-11,
-4850000,3.1461e-11,
-4750000,3.1559e-11,
-4650000,3.2159e-11,
-4550000,3.2465e-11,
-4450000,3.4225e-11,
-4350000,3.3784e-11,
-4250000,3.4474e-11,
-4150000,3.5711e-11,
-4050000,3.5934e-11,
-3950000,3.6744e-11,
-3850000,3.7263e-11,
-3750000,3.806e-11,
-3650000,3.9378e-11,
-3550000,3.9439e-11,
-3450000,4.0234e-11,
-3350000,4.0231e-11,
-3250000,4.0922e-11,
-3150000,4.2326e-11,
-3050000,4.2602e-11,
-2950000,4.3271e-11,
-2850000,4.3446e-11,
-2750000,4.3636e-11,
-2650000,4.4698e-11,
-2550000,4.5175e-11,
-2450000,4.6064e-11,
-2350000,4.5968e-11,
-2250000,4.7093e-11,
-2150000,4.7804e-11,
-2050000,4.7726e-11,
-1950000,4.7954e-11,
-1850000,4.7892e-11,
-1750000,4.8335e-11,
-1650000,4.7026e-11,
-1550000,4.7017e-11,
-1450000,4.7373e-11,
-1350000,4.773e-11,
-1250000,4.7652e-11,
-1150000,4.6262e-11,
-1050000,4.6486e-11,
-950000,4.661e-11,
-850000,4.5766e-11,
-750000,4.5805e-11,
-650000,4.4676e-11,
-550000,4.4411e-11,
-450000,4.3516e-11,
-350000,4.1839e-11,
-250000,4.2002e-11,
-150000,4.2813e-11,
-50000,4.2276e-11,
50000,4.2675e-11,
150000,4.2466e-11,
