General parameters:
Start time: 2023              8             21             15             24      40.849359
Finish time: 2023              8             21             15             30      35.550733
Dwell time (ms): 3000.000000
Source chamber pressure: 2.00e+3
Differential chamber pressure: 7.98e-07
Sample chamber pressure: 3.84e-08
Example position (nm): -3466000.000000,302000.000000,-1000000.000000
Rotation angle (udeg): 89999905.000000
==========
Instrument status: 
0:Data Directory:/icon/data/2023_08_MoS2_5um_hbn_sub/
1:Sample:MoS2
2:Comments:no
3:PinholePlate:#C13
4:z_Zero:4200
5:Operator:djw77/nav31/kw570
==========
zscan inputs: 
z_sep:50000
z_range:200000 -5000000
data_path:/icon/data/2023_08_MoS2_5um_hbn_sub/
example_pos:-3466000   302000 -1000000
N_dwell:200
sampling_period:15
make_plots:0
m1:0.98976
m2:-0.0073571
==========
Detector params:
Sampling period (ms): 15.000000
N dwell: 200.000000
Filament current (A): 1.540000
Filament emission (mA): 1.739754
Solenoid current (A): NaN
Solenoid shim current (A): NaN
Lens params:
0  685
1  300
2  125
3      -0.002
4       -0.01
5       0.012
6         0.8
7         2.1
8         2.8
9  3000
10  1450
11         0.85
12   0
==========
Data:
z(nm),I(A)
200000,6.9887e-11,
100000,7.3371e-11,
0,7.4674e-11,
-100000,7.4497e-11,
-200000,7.2826e-11,
-300000,7.177e-11,
-400000,6.993e-11,
-500000,7.1741e-11,
-600000,7.8478e-11,
-700000,8.5112e-11,
-800000,9.5372e-11,
-900000,1.0549e-10,
-1000000,1.1069e-10,
-1100000,1.0765e-10,
-1200000,9.9317e-11,
-1300000,9.075e-11,
-1400000,8.2752e-11,
-1500000,7.8129e-11,
-1600000,7.2951e-11,
-1700000,6.8958e-11,
-1800000,6.5388e-11,
-1900000,6.2138e-11,
-2000000,5.9204e-11,
-2100000,5.8743e-11,
-2200000,5.8964e-11,
-2300000,6.167e-11,
-2400000,6.6016e-11,
-2500000,6.7439e-11,
-2600000,6.5741e-11,
-2700000,6.167e-11,
-2800000,5.6562e-11,
-2900000,5.0275e-11,
-3000000,4.7453e-11,
-3100000,4.6209e-11,
-3200000,4.4438e-11,
-3300000,4.4423e-11,
-3400000,4.3433e-11,
-3500000,4.356e-11,
-3600000,4.216e-11,
-3700000,4.1257e-11,
-3800000,3.9632e-11,
-3900000,3.6442e-11,
-4000000,3.5848e-11,
-4100000,3.4177e-11,
-4200000,3.2372e-11,
-4300000,3.2249e-11,
-4400000,3.0507e-11,
-4500000,2.9496e-11,
-4600000,2.9304e-11,
-4700000,2.8717e-11,
-4800000,2.8382e-11,
-4900000,2.6401e-11,
-5000000,2.7169e-11,
-4950000,2.6919e-11,
-4850000,2.7651e-11,
-4750000,2.8292e-11,
-4650000,2.9192e-11,
-4550000,2.9607e-11,
-4450000,3.0851e-11,
-4350000,3.0961e-11,
-4250000,3.2218e-11,
-4150000,3.3389e-11,
-4050000,3.525e-11,
-3950000,3.5405e-11,
-3850000,3.8781e-11,
-3750000,3.9433e-11,
-3650000,4.1086e-11,
-3550000,4.2746e-11,
-3450000,4.4151e-11,
-3350000,4.4066e-11,
-3250000,4.534e-11,
-3150000,4.5809e-11,
-3050000,4.6844e-11,
-2950000,5.0826e-11,
-2850000,5.4835e-11,
-2750000,5.8606e-11,
-2650000,6.2884e-11,
-2550000,6.5033e-11,
-2450000,6.7071e-11,
-2350000,6.3221e-11,
-2250000,6.2543e-11,
-2150000,5.8429e-11,
-2050000,5.9182e-11,
-1950000,6.0902e-11,
-1850000,6.3707e-11,
-1750000,6.8294e-11,
-1650000,7.1723e-11,
-1550000,7.7008e-11,
-1450000,8.0409e-11,
-1350000,8.811e-11,
-1250000,9.5522e-11,
-1150000,1.0181e-10,
-1050000,1.1079e-10,
-950000,1.1154e-10,
-850000,1.0336e-10,
-750000,9.4864e-11,
-650000,8.484e-11,
-550000,7.627e-11,
-450000,7.0376e-11,
-350000,7.0364e-11,
-250000,7.3848e-11,
-150000,7.338e-11,
-50000,7.5776e-11,
50000,7.5282e-11,
150000,7.3599e-11,
