General parameters:
Start time: 2023              8             28              2             15      10.307289
Finish time: 2023              8             28              2             21       6.567798
Dwell time (ms): 3000.000000
Source chamber pressure: 2.00e+3
Differential chamber pressure: 6.35e-07
Sample chamber pressure: 3.62e-08
Example position (nm): -3981411.103958,50388.799184,-1000000.000000
Rotation angle (udeg): 55000050.000000
==========
Instrument status: 
0:Data Directory:/icon/data/2023_08_MoS2_5um_hbn_sub/
1:Sample:MoS2
2:Comments:no
3:PinholePlate:#C13
4:z_Zero:4200
5:Operator:djw77/nav31/kw570
==========
zscan inputs: 
z_sep:50000
z_range:200000 -5000000
data_path:/icon/data/2023_08_MoS2_5um_hbn_sub/
example_pos:-3981411.104      50388.799184          -1000000
N_dwell:200
sampling_period:15
make_plots:1
m1:0.98976
m2:-0.0073571
==========
Detector params:
Sampling period (ms): 15.000000
N dwell: 200.000000
Filament current (A): 1.540000
Filament emission (mA): 1.898784
Solenoid current (A): NaN
Solenoid shim current (A): NaN
Lens params:
0  685
1  300
2  125
3      -0.002
4       -0.01
5       0.012
6         0.8
7         2.1
8         2.8
9  3000
10  1450
11         0.85
12   0
==========
Data:
z(nm),I(A)
200000,4.4474e-11,
100000,4.4617e-11,
0,4.5607e-11,
-100000,4.6598e-11,
-200000,4.5891e-11,
-300000,4.592e-11,
-400000,4.6409e-11,
-500000,5.0078e-11,
-600000,4.9657e-11,
-700000,5.0468e-11,
-800000,5.8719e-11,
-900000,6.6273e-11,
-1000000,6.2302e-11,
-1100000,5.8456e-11,
-1200000,5.7914e-11,
-1300000,5.5671e-11,
-1400000,6.0442e-11,
-1500000,5.795e-11,
-1600000,5.7717e-11,
-1700000,5.8182e-11,
-1800000,5.8072e-11,
-1900000,5.7489e-11,
-2000000,5.7523e-11,
-2100000,5.6961e-11,
-2200000,5.4667e-11,
-2300000,5.7092e-11,
-2400000,5.622e-11,
-2500000,5.2879e-11,
-2600000,5.458e-11,
-2700000,5.4176e-11,
-2800000,5.3056e-11,
-2900000,5.0151e-11,
-3000000,4.8564e-11,
-3100000,4.7772e-11,
-3200000,5.0048e-11,
-3300000,4.9351e-11,
-3400000,4.7962e-11,
-3500000,4.5146e-11,
-3600000,4.3864e-11,
-3700000,4.1444e-11,
-3800000,4.0074e-11,
-3900000,3.9918e-11,
-4000000,4.0281e-11,
-4100000,3.7758e-11,
-4200000,3.7443e-11,
-4300000,3.6365e-11,
-4400000,3.5033e-11,
-4500000,3.3395e-11,
-4600000,3.3969e-11,
-4700000,3.1979e-11,
-4800000,3.1214e-11,
-4900000,3.0821e-11,
-5000000,2.9656e-11,
-4950000,3.0457e-11,
-4850000,3.2045e-11,
-4750000,3.2653e-11,
-4650000,3.3526e-11,
-4550000,3.3225e-11,
-4450000,3.4836e-11,
-4350000,3.625e-11,
-4250000,3.6487e-11,
-4150000,3.6742e-11,
-4050000,3.9245e-11,
-3950000,4.0003e-11,
-3850000,4.0123e-11,
-3750000,4.1559e-11,
-3650000,4.291e-11,
-3550000,4.4763e-11,
-3450000,4.7328e-11,
-3350000,4.9234e-11,
-3250000,4.929e-11,
-3150000,4.9854e-11,
-3050000,4.7805e-11,
-2950000,5.0182e-11,
-2850000,5.2442e-11,
-2750000,5.3039e-11,
-2650000,5.4552e-11,
-2550000,5.4364e-11,
-2450000,5.4512e-11,
-2350000,5.7896e-11,
-2250000,5.8109e-11,
-2150000,5.817e-11,
-2050000,5.8514e-11,
-1950000,5.9752e-11,
-1850000,5.9389e-11,
-1750000,6.0816e-11,
-1650000,6.1694e-11,
-1550000,6.2508e-11,
-1450000,6.4021e-11,
-1350000,6.2317e-11,
-1250000,5.751e-11,
-1150000,5.9437e-11,
-1050000,5.9462e-11,
-950000,6.5941e-11,
-850000,6.4309e-11,
-750000,5.6451e-11,
-650000,4.9121e-11,
-550000,5.0241e-11,
-450000,5.0363e-11,
-350000,4.6665e-11,
-250000,4.5541e-11,
-150000,4.6552e-11,
-50000,4.6183e-11,
50000,4.5294e-11,
150000,4.4478e-11,
