General parameters:
Start time: 2023              8             23             12             11       3.644356
Finish time: 2023              8             23             12             16      59.883702
Dwell time (ms): 3000.000000
Source chamber pressure: 2.00e+3
Differential chamber pressure: 7.74e-07
Sample chamber pressure: 3.75e-08
Example position (nm): -4102671.709727,-150048.953375,-1000000.000000
Rotation angle (udeg): 34999905.000000
==========
Instrument status: 
0:Data Directory:/icon/data/2023_08_MoS2_5um_hbn_sub/
1:Sample:MoS2
2:Comments:no
3:PinholePlate:#C13
4:z_Zero:4200
5:Operator:djw77/nav31/kw570
==========
zscan inputs: 
z_sep:50000
z_range:200000 -5000000
data_path:/icon/data/2023_08_MoS2_5um_hbn_sub/
example_pos:-4102671.7097     -150048.95337          -1000000
N_dwell:200
sampling_period:15
make_plots:1
m1:0.98976
m2:-0.0073571
==========
Detector params:
Sampling period (ms): 15.000000
N dwell: 200.000000
Filament current (A): 1.540000
Filament emission (mA): 1.792080
Solenoid current (A): NaN
Solenoid shim current (A): NaN
Lens params:
0  685
1  300
2  125
3      -0.002
4       -0.01
5       0.012
6         0.8
7         2.1
8         2.8
9  3000
10  1450
11         0.85
12   0
==========
Data:
z(nm),I(A)
200000,3.2336e-11,
100000,3.1887e-11,
0,3.1472e-11,
-100000,3.2529e-11,
-200000,3.2512e-11,
-300000,3.3191e-11,
-400000,3.3424e-11,
-500000,3.3841e-11,
-600000,3.4295e-11,
-700000,3.5357e-11,
-800000,3.57e-11,
-900000,3.6138e-11,
-1000000,3.626e-11,
-1100000,3.6162e-11,
-1200000,3.757e-11,
-1300000,3.8352e-11,
-1400000,3.7768e-11,
-1500000,3.8599e-11,
-1600000,3.8427e-11,
-1700000,3.8463e-11,
-1800000,3.7953e-11,
-1900000,3.7302e-11,
-2000000,3.7688e-11,
-2100000,3.827e-11,
-2200000,3.7046e-11,
-2300000,3.7164e-11,
-2400000,3.6552e-11,
-2500000,3.6275e-11,
-2600000,3.729e-11,
-2700000,3.6146e-11,
-2800000,3.6313e-11,
-2900000,3.3604e-11,
-3000000,3.4911e-11,
-3100000,3.4301e-11,
-3200000,3.3216e-11,
-3300000,3.3175e-11,
-3400000,3.2882e-11,
-3500000,3.2556e-11,
-3600000,3.1433e-11,
-3700000,3.0859e-11,
-3800000,3.0037e-11,
-3900000,2.9396e-11,
-4000000,2.9743e-11,
-4100000,2.8878e-11,
-4200000,2.8107e-11,
-4300000,2.6806e-11,
-4400000,2.764e-11,
-4500000,2.6362e-11,
-4600000,2.6231e-11,
-4700000,2.5302e-11,
-4800000,2.4372e-11,
-4900000,2.473e-11,
-5000000,2.464e-11,
-4950000,2.4236e-11,
-4850000,2.4604e-11,
-4750000,2.5251e-11,
-4650000,2.574e-11,
-4550000,2.634e-11,
-4450000,2.7133e-11,
-4350000,2.6772e-11,
-4250000,2.7595e-11,
-4150000,2.8263e-11,
-4050000,2.8879e-11,
-3950000,2.9838e-11,
-3850000,2.942e-11,
-3750000,3.0024e-11,
-3650000,3.1054e-11,
-3550000,3.1424e-11,
-3450000,3.2782e-11,
-3350000,3.2525e-11,
-3250000,3.2784e-11,
-3150000,3.3531e-11,
-3050000,3.4528e-11,
-2950000,3.4286e-11,
-2850000,3.4502e-11,
-2750000,3.6118e-11,
-2650000,3.5855e-11,
-2550000,3.6135e-11,
-2450000,3.7686e-11,
-2350000,3.7187e-11,
-2250000,3.8629e-11,
-2150000,3.7834e-11,
-2050000,3.9312e-11,
-1950000,3.8242e-11,
-1850000,3.7401e-11,
-1750000,3.8546e-11,
-1650000,3.7775e-11,
-1550000,3.7125e-11,
-1450000,3.7713e-11,
-1350000,3.7415e-11,
-1250000,3.7977e-11,
-1150000,3.6913e-11,
-1050000,3.7426e-11,
-950000,3.6371e-11,
-850000,3.5089e-11,
-750000,3.5605e-11,
-650000,3.596e-11,
-550000,3.4594e-11,
-450000,3.4443e-11,
-350000,3.3081e-11,
-250000,3.3278e-11,
-150000,3.2122e-11,
-50000,3.2667e-11,
50000,3.2214e-11,
150000,3.168e-11,
