General parameters:
Start time: 2023              8             28              3             21      29.446409
Finish time: 2023              8             28              3             27      25.948657
Dwell time (ms): 3000.000000
Source chamber pressure: 2.00e+3
Differential chamber pressure: 6.34e-07
Sample chamber pressure: 3.61e-08
Example position (nm): -3591774.744775,286323.575352,-1000000.000000
Rotation angle (udeg): 82500155.000000
==========
Instrument status: 
0:Data Directory:/icon/data/2023_08_MoS2_5um_hbn_sub/
1:Sample:MoS2
2:Comments:no
3:PinholePlate:#C13
4:z_Zero:4200
5:Operator:djw77/nav31/kw570
==========
zscan inputs: 
z_sep:50000
z_range:200000 -5000000
data_path:/icon/data/2023_08_MoS2_5um_hbn_sub/
example_pos:-3591774.7448      286323.57535          -1000000
N_dwell:200
sampling_period:15
make_plots:1
m1:0.98976
m2:-0.0073571
==========
Detector params:
Sampling period (ms): 15.000000
N dwell: 200.000000
Filament current (A): 1.540000
Filament emission (mA): 1.900836
Solenoid current (A): NaN
Solenoid shim current (A): NaN
Lens params:
0  685
1  300
2  125
3      -0.002
4       -0.01
5       0.012
6         0.8
7         2.1
8         2.8
9  3000
10  1450
11         0.85
12   0
==========
Data:
z(nm),I(A)
200000,1.2607e-10,
100000,1.1685e-10,
0,1.0374e-10,
-100000,9.1883e-11,
-200000,7.9381e-11,
-300000,6.9869e-11,
-400000,6.2023e-11,
-500000,6.1406e-11,
-600000,6.6782e-11,
-700000,8.7312e-11,
-800000,1.2946e-10,
-900000,1.7481e-10,
-1000000,1.8701e-10,
-1100000,1.6829e-10,
-1200000,1.2864e-10,
-1300000,9.2673e-11,
-1400000,7.5847e-11,
-1500000,6.5201e-11,
-1600000,6.2276e-11,
-1700000,6.2939e-11,
-1800000,6.1746e-11,
-1900000,6.0892e-11,
-2000000,6.0855e-11,
-2100000,5.8443e-11,
-2200000,5.6877e-11,
-2300000,5.7556e-11,
-2400000,5.8852e-11,
-2500000,5.8639e-11,
-2600000,5.757e-11,
-2700000,5.5671e-11,
-2800000,5.0971e-11,
-2900000,4.9089e-11,
-3000000,4.8512e-11,
-3100000,4.8435e-11,
-3200000,4.9222e-11,
-3300000,5.2048e-11,
-3400000,5.4445e-11,
-3500000,5.5218e-11,
-3600000,5.4964e-11,
-3700000,5.1454e-11,
-3800000,4.6055e-11,
-3900000,4.1333e-11,
-4000000,3.7608e-11,
-4100000,3.6093e-11,
-4200000,3.3637e-11,
-4300000,3.334e-11,
-4400000,3.2364e-11,
-4500000,3.1886e-11,
-4600000,3.1154e-11,
-4700000,3.1544e-11,
-4800000,3.2066e-11,
-4900000,3.1101e-11,
-5000000,2.9911e-11,
-4950000,2.9968e-11,
-4850000,3.1388e-11,
-4750000,3.1334e-11,
-4650000,3.1498e-11,
-4550000,3.1411e-11,
-4450000,3.1473e-11,
-4350000,3.1205e-11,
-4250000,3.2008e-11,
-4150000,3.3505e-11,
-4050000,3.6163e-11,
-3950000,3.8882e-11,
-3850000,4.2612e-11,
-3750000,4.7279e-11,
-3650000,5.2193e-11,
-3550000,5.5649e-11,
-3450000,5.4117e-11,
-3350000,5.3219e-11,
-3250000,5.1492e-11,
-3150000,4.8754e-11,
-3050000,4.7644e-11,
-2950000,4.759e-11,
-2850000,5.0364e-11,
-2750000,5.2687e-11,
-2650000,5.5413e-11,
-2550000,5.8556e-11,
-2450000,6.0186e-11,
-2350000,5.7814e-11,
-2250000,5.5655e-11,
-2150000,5.5355e-11,
-2050000,5.7883e-11,
-1950000,5.9925e-11,
-1850000,6.2195e-11,
-1750000,6.1965e-11,
-1650000,6.1332e-11,
-1550000,6.3578e-11,
-1450000,6.9311e-11,
-1350000,8.1936e-11,
-1250000,1.0451e-10,
-1150000,1.4537e-10,
-1050000,1.7892e-10,
-950000,1.8791e-10,
-850000,1.632e-10,
-750000,1.095e-10,
-650000,7.758e-11,
-550000,6.3592e-11,
-450000,6.0895e-11,
-350000,6.3437e-11,
-250000,7.2417e-11,
-150000,8.2742e-11,
-50000,9.5152e-11,
50000,1.0839e-10,
150000,1.1994e-10,
