General parameters:
Start time: 2023              9              5             13              0      14.013149
Finish time: 2023              9              5             13              9      15.724173
Dwell time (ms): 3750.000000
Source chamber pressure: Error-S
Differential chamber pressure: 7.98e-07
Sample chamber pressure: 3.74e-08
Example position (nm): -2890000.000000,245000.000000,-1000000.000000
Rotation angle (udeg): 125000005.000000
==========
Instrument status: 
0:Data Directory:/icon/data/2023_08_MoS2_5um_hbn_sub/
1:Sample:MoS2
2:Comments:no
3:PinholePlate:#C13
4:z_Zero:4200
5:Operator:djw77/nav31/kw570
==========
zscan inputs: 
z_sep:50000
z_range:500000 -6000000
data_path:/icon/data/2023_08_MoS2_5um_hbn_sub/
example_pos:-2890000   245000 -1000000
N_dwell:250
sampling_period:15
make_plots:1
m1:0.98976
m2:-0.0073571
==========
Detector params:
Sampling period (ms): 15.000000
N dwell: 250.000000
Filament current (A): 1.540000
Filament emission (mA): 1.926828
Solenoid current (A): NaN
Solenoid shim current (A): NaN
Lens params:
0  685
1  300
2  125
3      -0.002
4       -0.01
5       0.012
6         0.8
7         2.1
8         2.8
9  3000
10  1450
11         0.85
12   0
==========
Data:
z(nm),I(A)
500000,7.4039e-11,
400000,7.5743e-11,
300000,7.8417e-11,
200000,8.7981e-11,
100000,9.3346e-11,
0,9.3337e-11,
-100000,1.025e-10,
-200000,1.0277e-10,
-300000,1.0381e-10,
-400000,1.0741e-10,
-500000,1.2022e-10,
-600000,1.1478e-10,
-700000,1.2364e-10,
-800000,1.5805e-10,
-900000,1.835e-10,
-1000000,1.7153e-10,
-1100000,1.4685e-10,
-1200000,1.3097e-10,
-1300000,1.2494e-10,
-1400000,1.2427e-10,
-1500000,1.2764e-10,
-1600000,1.3133e-10,
-1700000,1.3724e-10,
-1800000,1.3453e-10,
-1900000,1.2689e-10,
-2000000,1.2247e-10,
-2100000,1.1906e-10,
-2200000,1.1762e-10,
-2300000,1.2156e-10,
-2400000,1.2975e-10,
-2500000,1.5501e-10,
-2600000,1.8895e-10,
-2700000,1.9355e-10,
-2800000,1.9128e-10,
-2900000,1.6279e-10,
-3000000,1.3592e-10,
-3100000,1.1718e-10,
-3200000,1.0304e-10,
-3300000,9.8614e-11,
-3400000,1.0163e-10,
-3500000,1.0617e-10,
-3600000,1.1047e-10,
-3700000,1.0793e-10,
-3800000,1.108e-10,
-3900000,1.1396e-10,
-4000000,1.1277e-10,
-4100000,9.7509e-11,
-4200000,8.3598e-11,
-4300000,7.3671e-11,
-4400000,6.5119e-11,
-4500000,6.0856e-11,
-4600000,5.7297e-11,
-4700000,5.551e-11,
-4800000,5.4514e-11,
-4900000,5.4275e-11,
-5000000,5.4515e-11,
-5100000,5.4335e-11,
-5200000,5.4379e-11,
-5300000,5.3498e-11,
-5400000,5.2171e-11,
-5500000,5.1564e-11,
-5600000,5.0114e-11,
-5700000,4.768e-11,
-5800000,4.6404e-11,
-5900000,4.4276e-11,
-6000000,4.206e-11,
-5950000,4.3013e-11,
-5850000,4.4454e-11,
-5750000,4.6035e-11,
-5650000,4.9181e-11,
-5550000,4.9406e-11,
-5450000,5.2766e-11,
-5350000,5.2032e-11,
-5250000,5.267e-11,
-5150000,5.4583e-11,
-5050000,5.4092e-11,
-4950000,5.4102e-11,
-4850000,5.3339e-11,
-4750000,5.5234e-11,
-4650000,5.6093e-11,
-4550000,5.7797e-11,
-4450000,6.2809e-11,
-4350000,6.8412e-11,
-4250000,7.7474e-11,
-4150000,8.975e-11,
-4050000,1.0418e-10,
-3950000,1.1443e-10,
-3850000,1.1395e-10,
-3750000,1.0667e-10,
-3650000,1.0887e-10,
-3550000,1.0909e-10,
-3450000,1.0394e-10,
-3350000,9.7894e-11,
-3250000,9.9587e-11,
-3150000,1.0444e-10,
-3050000,1.1625e-10,
-2950000,1.3766e-10,
-2850000,1.6493e-10,
-2750000,1.8717e-10,
-2650000,1.7519e-10,
-2550000,1.5759e-10,
-2450000,1.3331e-10,
-2350000,1.1956e-10,
-2250000,1.1405e-10,
-2150000,1.1023e-10,
-2050000,1.1315e-10,
-1950000,1.1245e-10,
-1850000,1.1182e-10,
-1750000,1.1968e-10,
-1650000,1.2491e-10,
-1550000,1.1889e-10,
-1450000,1.2059e-10,
-1350000,1.1967e-10,
-1250000,1.2153e-10,
-1150000,1.302e-10,
-1050000,1.5315e-10,
-950000,1.7807e-10,
-850000,1.5827e-10,
-750000,1.3073e-10,
-650000,1.07e-10,
-550000,1.0344e-10,
-450000,1.071e-10,
-350000,9.9781e-11,
-250000,9.4199e-11,
-150000,9.2338e-11,
-50000,9.0174e-11,
50000,8.7497e-11,
150000,8.4887e-11,
250000,8.0096e-11,
350000,7.6776e-11,
450000,7.3654e-11,
