General parameters:
Start time: 2023              8             17             15              3      25.599041
Finish time: 2023              8             17             15             11      11.411066
Dwell time (ms): 3750.000000
Source chamber pressure: 2.00e+3
Differential chamber pressure: 7.89e-07
Sample chamber pressure: 3.84e-08
Example position (nm): -3421000.000000,248000.000000,-1000000.000000
Rotation angle (udeg): 89999950.000000
==========
Instrument status: 
0:Data Directory:/icon/data/2023_08_MoS2_5um_hbn_sub/
1:Sample:MoS2
2:Comments:no
3:PinholePlate:#C13
4:z_Zero:4200
5:Operator:djw77/nav31/kw570
==========
zscan inputs: 
z_sep:50000
z_range:500000 -5000000
data_path:/icon/data/2023_08_MoS2_5um_hbn_sub/
example_pos:-3421000   248000 -1000000
N_dwell:250
sampling_period:15
make_plots:1
m1:0.98976
m2:-0.0073571
==========
Detector params:
Sampling period (ms): 15.000000
N dwell: 250.000000
Filament current (A): 1.540000
Filament emission (mA): 1.659726
Solenoid current (A): NaN
Solenoid shim current (A): NaN
Lens params:
0  685
1  300
2  125
3      -0.002
4       -0.01
5       0.012
6         0.8
7         2.1
8         2.8
9  3000
10  1450
11         0.85
12   0
==========
Data:
z(nm),I(A)
500000,4.307e-11,
400000,4.5554e-11,
300000,5.1959e-11,
200000,6.773e-11,
100000,6.6375e-11,
0,5.8836e-11,
-100000,5.4315e-11,
-200000,5.076e-11,
-300000,4.6322e-11,
-400000,4.3745e-11,
-500000,4.4412e-11,
-600000,4.9482e-11,
-700000,6.1964e-11,
-800000,8.5282e-11,
-900000,1.1301e-10,
-1000000,1.2313e-10,
-1100000,1.1164e-10,
-1200000,8.0001e-11,
-1300000,6.3347e-11,
-1400000,5.2222e-11,
-1500000,4.6424e-11,
-1600000,4.3389e-11,
-1700000,4.206e-11,
-1800000,4.0437e-11,
-1900000,4.0219e-11,
-2000000,3.9722e-11,
-2100000,4.1466e-11,
-2200000,4.3765e-11,
-2300000,4.7058e-11,
-2400000,5.3878e-11,
-2500000,5.5396e-11,
-2600000,5.5654e-11,
-2700000,5.034e-11,
-2800000,4.2863e-11,
-2900000,3.8249e-11,
-3000000,3.5702e-11,
-3100000,3.4963e-11,
-3200000,3.4672e-11,
-3300000,3.6114e-11,
-3400000,3.6596e-11,
-3500000,3.7998e-11,
-3600000,3.7611e-11,
-3700000,3.5637e-11,
-3800000,3.2928e-11,
-3900000,3.036e-11,
-4000000,2.9109e-11,
-4100000,2.7551e-11,
-4200000,2.6873e-11,
-4300000,2.5104e-11,
-4400000,2.454e-11,
-4500000,2.4891e-11,
-4600000,2.3194e-11,
-4700000,2.3755e-11,
-4800000,2.2795e-11,
-4900000,2.2648e-11,
-5000000,2.2035e-11,
-4950000,2.2284e-11,
-4850000,2.2126e-11,
-4750000,2.3415e-11,
-4650000,2.353e-11,
-4550000,2.3728e-11,
-4450000,2.3973e-11,
-4350000,2.5604e-11,
-4250000,2.5708e-11,
-4150000,2.6758e-11,
-4050000,2.7588e-11,
-3950000,2.8994e-11,
-3850000,3.1772e-11,
-3750000,3.4387e-11,
-3650000,3.6012e-11,
-3550000,3.7935e-11,
-3450000,3.6992e-11,
-3350000,3.7088e-11,
-3250000,3.5962e-11,
-3150000,3.565e-11,
-3050000,3.509e-11,
-2950000,3.7121e-11,
-2850000,3.9419e-11,
-2750000,4.535e-11,
-2650000,5.2477e-11,
-2550000,5.6009e-11,
-2450000,5.5076e-11,
-2350000,5.092e-11,
-2250000,4.5199e-11,
-2150000,4.2138e-11,
-2050000,4.0736e-11,
-1950000,4.0284e-11,
-1850000,4.0647e-11,
-1750000,4.0481e-11,
-1650000,4.1782e-11,
-1550000,4.4402e-11,
-1450000,4.811e-11,
-1350000,5.4831e-11,
-1250000,6.7389e-11,
-1150000,9.1136e-11,
-1050000,1.1955e-10,
-950000,1.2283e-10,
-850000,1.0678e-10,
-750000,7.2406e-11,
-650000,5.5611e-11,
-550000,4.6489e-11,
-450000,4.439e-11,
-350000,4.3985e-11,
-250000,4.7668e-11,
-150000,5.0818e-11,
-50000,5.5486e-11,
50000,6.0951e-11,
150000,6.8174e-11,
250000,6.3175e-11,
350000,4.9263e-11,
450000,4.528e-11,
