General parameters:
Start time: 2023              8             15             10             17      35.878174
Finish time: 2023              8             15             10             32       44.65966
Dwell time (ms): 3750.000000
Source chamber pressure: 2.00e+3
Differential chamber pressure: 7.97e-07
Sample chamber pressure: 4.16e-08
Example position (nm): -3485000.000000,-288000.000000,-1000000.000000
Rotation angle (udeg): 89999930.000000
==========
Instrument status: 
0:Data Directory:/icon/data/2023_08_MoS2_5um_hbn_sub/
1:Sample:MoS2
2:Comments:no
3:PinholePlate:#C13
4:z_Zero:4200
5:Operator:djw77/nav31/kw570
==========
zscan inputs: 
z_sep:30000
z_range:500000 -6000000
data_path:/icon/data/2023_08_MoS2_5um_hbn_sub/
example_pos:-3485000  -288000 -1000000
N_dwell:250
sampling_period:15
make_plots:1
m1:0.98534
m2:-0.0012405
==========
Detector params:
Sampling period (ms): 15.000000
N dwell: 250.000000
Filament current (A): 1.540000
Filament emission (mA): 1.628946
Solenoid current (A): NaN
Solenoid shim current (A): NaN
Lens params:
0  685
1  300
2  125
3      -0.002
4       -0.01
5       0.012
6         0.8
7         2.1
8         2.8
9  3000
10  1450
11         0.85
12   0
==========
Data:
z(nm),I(A)
500000,9.7152e-11,
440000,9.6755e-11,
380000,9.7393e-11,
320000,9.718e-11,
260000,9.7165e-11,
200000,9.8072e-11,
140000,9.851e-11,
80000,9.8431e-11,
20000,9.6842e-11,
-40000,9.6858e-11,
-100000,9.8127e-11,
-160000,9.619e-11,
-220000,9.6228e-11,
-280000,9.5395e-11,
-340000,9.586e-11,
-400000,9.7205e-11,
-460000,9.9067e-11,
-520000,9.7755e-11,
-580000,9.7897e-11,
-640000,9.8628e-11,
-700000,9.9357e-11,
-760000,9.8212e-11,
-820000,9.8232e-11,
-880000,9.9589e-11,
-940000,9.9508e-11,
-1000000,9.999e-11,
-1060000,1.012e-10,
-1120000,9.9757e-11,
-1180000,1.0119e-10,
-1240000,1.0073e-10,
-1300000,1.0193e-10,
-1360000,1.0045e-10,
-1420000,1.0178e-10,
-1480000,1.0122e-10,
-1540000,1.009e-10,
-1600000,1.0191e-10,
-1660000,1.027e-10,
-1720000,1.0258e-10,
-1780000,1.007e-10,
-1840000,1.0163e-10,
-1900000,1.0104e-10,
-1960000,1.0093e-10,
-2020000,1.0116e-10,
-2080000,1.0219e-10,
-2140000,9.9882e-11,
-2200000,9.9432e-11,
-2260000,1.001e-10,
-2320000,9.8929e-11,
-2380000,1.0006e-10,
-2440000,9.8176e-11,
-2500000,9.826e-11,
-2560000,9.7619e-11,
-2620000,9.7178e-11,
-2680000,9.605e-11,
-2740000,9.7346e-11,
-2800000,9.5884e-11,
-2860000,9.4237e-11,
-2920000,9.5486e-11,
-2980000,9.4211e-11,
-3040000,9.3055e-11,
-3100000,9.1025e-11,
-3160000,8.9802e-11,
-3220000,8.9857e-11,
-3280000,8.9044e-11,
-3340000,8.7778e-11,
-3400000,8.7907e-11,
-3460000,8.7677e-11,
-3520000,8.581e-11,
-3580000,8.6354e-11,
-3640000,8.5905e-11,
-3700000,8.4838e-11,
-3760000,8.2907e-11,
-3820000,8.3715e-11,
-3880000,8.2325e-11,
-3940000,8.2082e-11,
-4000000,8.0538e-11,
-4060000,8.0677e-11,
-4120000,7.8551e-11,
-4180000,7.9352e-11,
-4240000,7.7857e-11,
-4300000,7.7882e-11,
-4360000,7.6406e-11,
-4420000,7.6047e-11,
-4480000,7.5369e-11,
-4540000,7.5281e-11,
-4600000,7.231e-11,
-4660000,7.3712e-11,
-4720000,7.2987e-11,
-4780000,7.218e-11,
-4840000,7.2312e-11,
-4900000,7.1252e-11,
-4960000,7.1341e-11,
-5020000,6.943e-11,
-5080000,6.9714e-11,
-5140000,6.878e-11,
-5200000,6.8514e-11,
-5260000,6.7997e-11,
-5320000,6.7375e-11,
-5380000,6.6453e-11,
-5440000,6.6183e-11,
-5500000,6.4872e-11,
-5560000,6.5731e-11,
-5620000,6.5353e-11,
-5680000,6.5515e-11,
-5740000,6.4176e-11,
-5800000,6.3448e-11,
-5860000,6.325e-11,
-5920000,6.4054e-11,
-5980000,6.2822e-11,
-5950000,6.2601e-11,
-5890000,6.3882e-11,
-5830000,6.3909e-11,
-5770000,6.4321e-11,
-5710000,6.4517e-11,
-5650000,6.555e-11,
-5590000,6.5172e-11,
-5530000,6.6126e-11,
-5470000,6.6286e-11,
-5410000,6.5456e-11,
-5350000,6.693e-11,
-5290000,6.808e-11,
-5230000,6.758e-11,
-5170000,6.8425e-11,
-5110000,6.8672e-11,
-5050000,7.0028e-11,
-4990000,6.8981e-11,
-4930000,7.0455e-11,
-4870000,7.133e-11,
-4810000,7.1301e-11,
-4750000,7.1388e-11,
-4690000,7.3145e-11,
-4630000,7.3978e-11,
-4570000,7.4378e-11,
-4510000,7.5354e-11,
-4450000,7.608e-11,
-4390000,7.6234e-11,
-4330000,7.7496e-11,
-4270000,7.7349e-11,
-4210000,7.8865e-11,
-4150000,7.8594e-11,
-4090000,8.1443e-11,
-4030000,8.0202e-11,
-3970000,8.1741e-11,
-3910000,8.2186e-11,
-3850000,8.2477e-11,
-3790000,8.2648e-11,
-3730000,8.3223e-11,
-3670000,8.3744e-11,
-3610000,8.526e-11,
-3550000,8.6851e-11,
-3490000,8.7293e-11,
-3430000,8.7566e-11,
-3370000,8.7754e-11,
-3310000,8.9022e-11,
-3250000,8.9244e-11,
-3190000,8.9741e-11,
-3130000,9.0731e-11,
-3070000,9.2304e-11,
-3010000,9.2144e-11,
-2950000,9.3199e-11,
-2890000,9.4863e-11,
-2830000,9.52e-11,
-2770000,9.593e-11,
-2710000,9.5301e-11,
-2650000,9.6121e-11,
-2590000,9.697e-11,
-2530000,9.767e-11,
-2470000,9.8077e-11,
-2410000,9.8193e-11,
-2350000,9.9109e-11,
-2290000,9.9164e-11,
-2230000,1.0039e-10,
-2170000,1.0015e-10,
-2110000,9.9506e-11,
-2050000,9.9592e-11,
-1990000,1.0018e-10,
-1930000,1.0132e-10,
-1870000,1.0199e-10,
-1810000,1.0174e-10,
-1750000,1.0222e-10,
-1690000,1.019e-10,
-1630000,1.019e-10,
-1570000,1.0231e-10,
-1510000,1.0079e-10,
-1450000,1.015e-10,
-1390000,1.0023e-10,
-1330000,1.0007e-10,
-1270000,1.0146e-10,
-1210000,1.0143e-10,
-1150000,1.0069e-10,
-1090000,9.9258e-11,
-1030000,1.0084e-10,
-970000,9.9483e-11,
-910000,1.0016e-10,
-850000,9.8384e-11,
-790000,9.814e-11,
-730000,9.764e-11,
-670000,9.9356e-11,
-610000,9.6481e-11,
-550000,9.7884e-11,
-490000,9.837e-11,
-430000,9.6684e-11,
-370000,9.7138e-11,
-310000,9.728e-11,
-250000,9.6398e-11,
-190000,9.523e-11,
-130000,9.6968e-11,
-70000,9.7252e-11,
-10000,9.6125e-11,
50000,9.8097e-11,
110000,9.7322e-11,
170000,9.7473e-11,
230000,9.8012e-11,
290000,9.8638e-11,
350000,9.7052e-11,
410000,9.7197e-11,
470000,9.6485e-11,
