General parameters:
Start time: 2023              8             21             14             36      39.976236
Finish time: 2023              8             21             14             42      34.422914
Dwell time (ms): 3000.000000
Source chamber pressure: 2.00e+3
Differential chamber pressure: 7.98e-07
Sample chamber pressure: 3.83e-08
Example position (nm): -3741070.923113,208604.725358,-1000000.000000
Rotation angle (udeg): 69999680.000000
==========
Instrument status: 
0:Data Directory:/icon/data/2023_08_MoS2_5um_hbn_sub/
1:Sample:MoS2
2:Comments:no
3:PinholePlate:#C13
4:z_Zero:4200
5:Operator:djw77/nav31/kw570
==========
zscan inputs: 
z_sep:50000
z_range:200000 -5000000
data_path:/icon/data/2023_08_MoS2_5um_hbn_sub/
example_pos:-3741070.9231      208604.72536          -1000000
N_dwell:200
sampling_period:15
make_plots:0
m1:0.98976
m2:-0.0073571
==========
Detector params:
Sampling period (ms): 15.000000
N dwell: 200.000000
Filament current (A): 1.540000
Filament emission (mA): 1.743858
Solenoid current (A): NaN
Solenoid shim current (A): NaN
Lens params:
0  685
1  300
2  125
3      -0.002
4       -0.01
5       0.012
6         0.8
7         2.1
8         2.8
9  3000
10  1450
11         0.85
12   0
==========
Data:
z(nm),I(A)
200000,4.2364e-11,
100000,4.1844e-11,
0,4.2574e-11,
-100000,4.2589e-11,
-200000,4.3357e-11,
-300000,4.2051e-11,
-400000,4.308e-11,
-500000,4.3109e-11,
-600000,4.3651e-11,
-700000,4.479e-11,
-800000,4.5625e-11,
-900000,4.6215e-11,
-1000000,4.7196e-11,
-1100000,4.6668e-11,
-1200000,4.5918e-11,
-1300000,4.7367e-11,
-1400000,4.7984e-11,
-1500000,4.8599e-11,
-1600000,4.8507e-11,
-1700000,4.9238e-11,
-1800000,4.8449e-11,
-1900000,4.8808e-11,
-2000000,4.8489e-11,
-2100000,4.7186e-11,
-2200000,4.643e-11,
-2300000,4.726e-11,
-2400000,4.5908e-11,
-2500000,4.5277e-11,
-2600000,4.4607e-11,
-2700000,4.5732e-11,
-2800000,4.5819e-11,
-2900000,4.3823e-11,
-3000000,4.3346e-11,
-3100000,4.213e-11,
-3200000,4.2101e-11,
-3300000,4.1747e-11,
-3400000,4.1654e-11,
-3500000,4.0796e-11,
-3600000,3.9137e-11,
-3700000,3.9044e-11,
-3800000,3.8885e-11,
-3900000,3.6637e-11,
-4000000,3.6379e-11,
-4100000,3.6386e-11,
-4200000,3.5822e-11,
-4300000,3.4568e-11,
-4400000,3.3581e-11,
-4500000,3.3513e-11,
-4600000,3.3521e-11,
-4700000,3.1943e-11,
-4800000,3.1172e-11,
-4900000,3.0857e-11,
-5000000,3.0516e-11,
-4950000,3.032e-11,
-4850000,3.163e-11,
-4750000,3.19e-11,
-4650000,3.2508e-11,
-4550000,3.2931e-11,
-4450000,3.272e-11,
-4350000,3.4169e-11,
-4250000,3.5081e-11,
-4150000,3.5875e-11,
-4050000,3.6671e-11,
-3950000,3.6067e-11,
-3850000,3.7494e-11,
-3750000,3.9181e-11,
-3650000,3.9498e-11,
-3550000,3.9388e-11,
-3450000,4.0434e-11,
-3350000,4.1138e-11,
-3250000,4.1862e-11,
-3150000,4.2342e-11,
-3050000,4.2964e-11,
-2950000,4.3457e-11,
-2850000,4.4595e-11,
-2750000,4.5606e-11,
-2650000,4.5897e-11,
-2550000,4.6066e-11,
-2450000,4.6111e-11,
-2350000,4.7178e-11,
-2250000,4.7386e-11,
-2150000,4.8187e-11,
-2050000,4.8834e-11,
-1950000,4.7765e-11,
-1850000,4.7886e-11,
-1750000,4.8557e-11,
-1650000,4.9103e-11,
-1550000,4.8072e-11,
-1450000,4.7603e-11,
-1350000,4.8004e-11,
-1250000,4.6431e-11,
-1150000,4.6365e-11,
-1050000,4.6223e-11,
-950000,4.6551e-11,
-850000,4.6081e-11,
-750000,4.4689e-11,
-650000,4.52e-11,
-550000,4.4137e-11,
-450000,4.3452e-11,
-350000,4.2546e-11,
-250000,4.3087e-11,
-150000,4.233e-11,
-50000,4.2188e-11,
50000,4.1624e-11,
150000,4.2463e-11,
