General parameters:
Start time: 2023              8             28              1             51       3.843496
Finish time: 2023              8             28              1             57        0.60392
Dwell time (ms): 3000.000000
Source chamber pressure: 2.00e+3
Differential chamber pressure: 6.36e-07
Sample chamber pressure: 3.61e-08
Example position (nm): -4088893.552370,-77458.792203,-1000000.000000
Rotation angle (udeg): 44999825.000000
==========
Instrument status: 
0:Data Directory:/icon/data/2023_08_MoS2_5um_hbn_sub/
1:Sample:MoS2
2:Comments:no
3:PinholePlate:#C13
4:z_Zero:4200
5:Operator:djw77/nav31/kw570
==========
zscan inputs: 
z_sep:50000
z_range:200000 -5000000
data_path:/icon/data/2023_08_MoS2_5um_hbn_sub/
example_pos:-4088893.5524     -77458.792203          -1000000
N_dwell:200
sampling_period:15
make_plots:1
m1:0.98976
m2:-0.0073571
==========
Detector params:
Sampling period (ms): 15.000000
N dwell: 200.000000
Filament current (A): 1.540000
Filament emission (mA): 1.901520
Solenoid current (A): NaN
Solenoid shim current (A): NaN
Lens params:
0  685
1  300
2  125
3      -0.002
4       -0.01
5       0.012
6         0.8
7         2.1
8         2.8
9  3000
10  1450
11         0.85
12   0
==========
Data:
z(nm),I(A)
200000,4.2245e-11,
100000,4.1366e-11,
0,4.2209e-11,
-100000,4.2364e-11,
-200000,4.269e-11,
-300000,4.3421e-11,
-400000,4.4242e-11,
-500000,4.4433e-11,
-600000,4.5305e-11,
-700000,4.5598e-11,
-800000,4.6e-11,
-900000,4.474e-11,
-1000000,4.6855e-11,
-1100000,4.6973e-11,
-1200000,4.7215e-11,
-1300000,4.7889e-11,
-1400000,4.9879e-11,
-1500000,4.8988e-11,
-1600000,5.0216e-11,
-1700000,4.9413e-11,
-1800000,5.001e-11,
-1900000,4.9464e-11,
-2000000,4.9273e-11,
-2100000,4.9026e-11,
-2200000,4.8468e-11,
-2300000,4.8973e-11,
-2400000,4.9058e-11,
-2500000,4.8403e-11,
-2600000,4.8279e-11,
-2700000,4.7322e-11,
-2800000,4.6437e-11,
-2900000,4.5505e-11,
-3000000,4.5151e-11,
-3100000,4.4531e-11,
-3200000,4.3387e-11,
-3300000,4.2404e-11,
-3400000,4.1571e-11,
-3500000,4.0762e-11,
-3600000,4.0986e-11,
-3700000,4.0674e-11,
-3800000,3.8966e-11,
-3900000,3.8599e-11,
-4000000,3.7491e-11,
-4100000,3.7214e-11,
-4200000,3.6386e-11,
-4300000,3.4771e-11,
-4400000,3.5591e-11,
-4500000,3.4397e-11,
-4600000,3.4079e-11,
-4700000,3.3788e-11,
-4800000,3.3344e-11,
-4900000,3.208e-11,
-5000000,3.2037e-11,
-4950000,3.1506e-11,
-4850000,3.2637e-11,
-4750000,3.3676e-11,
-4650000,3.2951e-11,
-4550000,3.4736e-11,
-4450000,3.589e-11,
-4350000,3.539e-11,
-4250000,3.681e-11,
-4150000,3.7059e-11,
-4050000,3.7385e-11,
-3950000,3.8171e-11,
-3850000,3.9593e-11,
-3750000,3.9022e-11,
-3650000,3.9732e-11,
-3550000,4.0527e-11,
-3450000,4.1204e-11,
-3350000,4.2237e-11,
-3250000,4.2742e-11,
-3150000,4.3252e-11,
-3050000,4.505e-11,
-2950000,4.4924e-11,
-2850000,4.5925e-11,
-2750000,4.6159e-11,
-2650000,4.6766e-11,
-2550000,4.816e-11,
-2450000,4.8186e-11,
-2350000,4.8611e-11,
-2250000,4.8223e-11,
-2150000,4.8563e-11,
-2050000,4.8874e-11,
-1950000,4.9908e-11,
-1850000,4.8489e-11,
-1750000,4.9908e-11,
-1650000,4.9742e-11,
-1550000,4.9212e-11,
-1450000,4.9425e-11,
-1350000,4.8243e-11,
-1250000,4.8554e-11,
-1150000,4.7716e-11,
-1050000,4.7513e-11,
-950000,4.6998e-11,
-850000,4.6506e-11,
-750000,4.5705e-11,
-650000,4.6231e-11,
-550000,4.4332e-11,
-450000,4.3606e-11,
-350000,4.4125e-11,
-250000,4.2554e-11,
-150000,4.2484e-11,
-50000,4.2018e-11,
50000,4.2023e-11,
150000,4.2465e-11,
