General parameters:
Start time: 2023              8             15             16              5      18.499037
Finish time: 2023              8             15             16             20       24.96058
Dwell time (ms): 3750.000000
Source chamber pressure: 2.00e+3
Differential chamber pressure: 7.88e-07
Sample chamber pressure: 3.98e-08
Example position (nm): -3418000.000000,297000.000000,-1000000.000000
Rotation angle (udeg): 89999875.000000
==========
Instrument status: 
0:Data Directory:/icon/data/2023_08_MoS2_5um_hbn_sub/
1:Sample:MoS2
2:Comments:no
3:PinholePlate:#C13
4:z_Zero:4200
5:Operator:djw77/nav31/kw570
==========
zscan inputs: 
z_sep:30000
z_range:500000 -6000000
data_path:/icon/data/2023_08_MoS2_5um_hbn_sub/
example_pos:-3418000   297000 -1000000
N_dwell:250
sampling_period:15
make_plots:1
m1:0.98534
m2:-0.0012405
==========
Detector params:
Sampling period (ms): 15.000000
N dwell: 250.000000
Filament current (A): 1.540000
Filament emission (mA): 1.566018
Solenoid current (A): NaN
Solenoid shim current (A): NaN
Lens params:
0  685
1  300
2  125
3      -0.002
4       -0.01
5       0.012
6         0.8
7         2.1
8         2.8
9  3000
10  1450
11         0.85
12   0
==========
Data:
z(nm),I(A)
500000,8.6402e-11,
440000,8.6141e-11,
380000,8.6537e-11,
320000,8.8856e-11,
260000,8.7528e-11,
200000,8.9335e-11,
140000,8.825e-11,
80000,8.827e-11,
20000,8.8054e-11,
-40000,8.7588e-11,
-100000,8.8148e-11,
-160000,8.8658e-11,
-220000,8.8936e-11,
-280000,8.9696e-11,
-340000,9.0751e-11,
-400000,9.0585e-11,
-460000,9.1295e-11,
-520000,9.1684e-11,
-580000,9.2092e-11,
-640000,9.2488e-11,
-700000,9.2699e-11,
-760000,9.2867e-11,
-820000,9.2931e-11,
-880000,9.3468e-11,
-940000,9.417e-11,
-1000000,9.42e-11,
-1060000,9.4741e-11,
-1120000,9.4308e-11,
-1180000,9.5914e-11,
-1240000,9.5436e-11,
-1300000,9.5496e-11,
-1360000,9.5212e-11,
-1420000,9.5399e-11,
-1480000,9.6078e-11,
-1540000,9.6108e-11,
-1600000,9.612e-11,
-1660000,9.5324e-11,
-1720000,9.5296e-11,
-1780000,9.6168e-11,
-1840000,9.6819e-11,
-1900000,9.4865e-11,
-1960000,9.6096e-11,
-2020000,9.5329e-11,
-2080000,9.5045e-11,
-2140000,9.4545e-11,
-2200000,9.4619e-11,
-2260000,9.4256e-11,
-2320000,9.3806e-11,
-2380000,9.3063e-11,
-2440000,9.2481e-11,
-2500000,9.2272e-11,
-2560000,9.1762e-11,
-2620000,9.1153e-11,
-2680000,9.1079e-11,
-2740000,9.0629e-11,
-2800000,8.9685e-11,
-2860000,8.9569e-11,
-2920000,8.8306e-11,
-2980000,8.7154e-11,
-3040000,8.6135e-11,
-3100000,8.5684e-11,
-3160000,8.513e-11,
-3220000,8.458e-11,
-3280000,8.3094e-11,
-3340000,8.349e-11,
-3400000,8.3316e-11,
-3460000,8.1984e-11,
-3520000,8.2174e-11,
-3580000,8.0536e-11,
-3640000,7.8959e-11,
-3700000,8.0282e-11,
-3760000,7.8637e-11,
-3820000,7.7002e-11,
-3880000,7.7695e-11,
-3940000,7.6994e-11,
-4000000,7.7043e-11,
-4060000,7.5362e-11,
-4120000,7.4944e-11,
-4180000,7.4254e-11,
-4240000,7.449e-11,
-4300000,7.2404e-11,
-4360000,7.3486e-11,
-4420000,7.1969e-11,
-4480000,7.0966e-11,
-4540000,7.0622e-11,
-4600000,7.0172e-11,
-4660000,6.8233e-11,
-4720000,6.759e-11,
-4780000,6.8585e-11,
-4840000,6.7025e-11,
-4900000,6.7278e-11,
-4960000,6.7071e-11,
-5020000,6.6197e-11,
-5080000,6.5844e-11,
-5140000,6.5824e-11,
-5200000,6.4186e-11,
-5260000,6.4371e-11,
-5320000,6.2411e-11,
-5380000,6.2931e-11,
-5440000,6.232e-11,
-5500000,6.2033e-11,
-5560000,6.1966e-11,
-5620000,6.1136e-11,
-5680000,6.0209e-11,
-5740000,6.0058e-11,
-5800000,6.0994e-11,
-5860000,5.931e-11,
-5920000,5.8626e-11,
-5980000,5.9076e-11,
-5950000,5.9445e-11,
-5890000,5.9209e-11,
-5830000,5.9482e-11,
-5770000,6.0213e-11,
-5710000,6.0301e-11,
-5650000,6.0717e-11,
-5590000,6.1794e-11,
-5530000,6.1955e-11,
-5470000,6.1544e-11,
-5410000,6.3354e-11,
-5350000,6.4338e-11,
-5290000,6.3106e-11,
-5230000,6.2642e-11,
-5170000,6.5545e-11,
-5110000,6.5803e-11,
-5050000,6.6206e-11,
-4990000,6.6032e-11,
-4930000,6.7214e-11,
-4870000,6.7215e-11,
-4810000,6.6956e-11,
-4750000,6.8838e-11,
-4690000,6.9168e-11,
-4630000,6.9882e-11,
-4570000,7.0419e-11,
-4510000,7.0442e-11,
-4450000,7.2237e-11,
-4390000,7.2564e-11,
-4330000,7.3605e-11,
-4270000,7.2896e-11,
-4210000,7.5122e-11,
-4150000,7.3804e-11,
-4090000,7.4748e-11,
-4030000,7.581e-11,
-3970000,7.6183e-11,
-3910000,7.7269e-11,
-3850000,7.7631e-11,
-3790000,7.8793e-11,
-3730000,7.8323e-11,
-3670000,7.9102e-11,
-3610000,8.0503e-11,
-3550000,8.1362e-11,
-3490000,8.15e-11,
-3430000,8.2867e-11,
-3370000,8.3625e-11,
-3310000,8.5404e-11,
-3250000,8.4939e-11,
-3190000,8.5323e-11,
-3130000,8.6668e-11,
-3070000,8.6636e-11,
-3010000,8.8243e-11,
-2950000,8.8428e-11,
-2890000,8.9412e-11,
-2830000,8.8985e-11,
-2770000,9.1304e-11,
-2710000,9.1878e-11,
-2650000,9.1104e-11,
-2590000,9.0699e-11,
-2530000,9.206e-11,
-2470000,9.153e-11,
-2410000,9.3219e-11,
-2350000,9.4494e-11,
-2290000,9.3381e-11,
-2230000,9.4931e-11,
-2170000,9.3607e-11,
-2110000,9.508e-11,
-2050000,9.6131e-11,
-1990000,9.4926e-11,
-1930000,9.6832e-11,
-1870000,9.6428e-11,
-1810000,9.5782e-11,
-1750000,9.5384e-11,
-1690000,9.6998e-11,
-1630000,9.6343e-11,
-1570000,9.7439e-11,
-1510000,9.5798e-11,
-1450000,9.6667e-11,
-1390000,9.5769e-11,
-1330000,9.5735e-11,
-1270000,9.5532e-11,
-1210000,9.5988e-11,
-1150000,9.588e-11,
-1090000,9.4436e-11,
-1030000,9.2634e-11,
-970000,9.3731e-11,
-910000,9.4172e-11,
-850000,9.3918e-11,
-790000,9.2651e-11,
-730000,9.2836e-11,
-670000,9.369e-11,
-610000,9.1988e-11,
-550000,9.1071e-11,
-490000,8.9785e-11,
-430000,9.0806e-11,
-370000,8.9718e-11,
-310000,9.0278e-11,
-250000,8.9843e-11,
-190000,8.8768e-11,
-130000,8.7648e-11,
-70000,8.7431e-11,
-10000,8.7465e-11,
50000,8.709e-11,
110000,8.8921e-11,
170000,8.8788e-11,
230000,8.9174e-11,
290000,8.7971e-11,
350000,8.7754e-11,
410000,8.677e-11,
470000,8.6933e-11,
