General parameters:
Start time: 2023              8             28              2             57      23.041592
Finish time: 2023              8             28              3              3      19.377646
Dwell time (ms): 3000.000000
Source chamber pressure: 2.00e+3
Differential chamber pressure: 6.34e-07
Sample chamber pressure: 3.62e-08
Example position (nm): -3746146.288921,222551.248298,-1000000.000000
Rotation angle (udeg): 72500035.000000
==========
Instrument status: 
0:Data Directory:/icon/data/2023_08_MoS2_5um_hbn_sub/
1:Sample:MoS2
2:Comments:no
3:PinholePlate:#C13
4:z_Zero:4200
5:Operator:djw77/nav31/kw570
==========
zscan inputs: 
z_sep:50000
z_range:200000 -5000000
data_path:/icon/data/2023_08_MoS2_5um_hbn_sub/
example_pos:-3746146.2889       222551.2483          -1000000
N_dwell:200
sampling_period:15
make_plots:1
m1:0.98976
m2:-0.0073571
==========
Detector params:
Sampling period (ms): 15.000000
N dwell: 200.000000
Filament current (A): 1.540000
Filament emission (mA): 1.899468
Solenoid current (A): NaN
Solenoid shim current (A): NaN
Lens params:
0  685
1  300
2  125
3      -0.002
4       -0.01
5       0.012
6         0.8
7         2.1
8         2.8
9  3000
10  1450
11         0.85
12   0
==========
Data:
z(nm),I(A)
200000,1.6436e-10,
100000,1.5126e-10,
0,1.296e-10,
-100000,1.0614e-10,
-200000,8.7907e-11,
-300000,7.3815e-11,
-400000,6.5577e-11,
-500000,6.1024e-11,
-600000,6.7516e-11,
-700000,8.7255e-11,
-800000,1.2402e-10,
-900000,1.7037e-10,
-1000000,1.9449e-10,
-1100000,1.8609e-10,
-1200000,1.4662e-10,
-1300000,1.0584e-10,
-1400000,8.4186e-11,
-1500000,7.386e-11,
-1600000,7.5367e-11,
-1700000,8.4927e-11,
-1800000,9.6987e-11,
-1900000,1.0328e-10,
-2000000,9.9244e-11,
-2100000,8.5268e-11,
-2200000,7.0976e-11,
-2300000,6.2425e-11,
-2400000,5.9833e-11,
-2500000,6.3888e-11,
-2600000,7.1929e-11,
-2700000,8.3504e-11,
-2800000,9.3576e-11,
-2900000,9.9035e-11,
-3000000,9.3589e-11,
-3100000,8.2147e-11,
-3200000,6.694e-11,
-3300000,5.5398e-11,
-3400000,4.8638e-11,
-3500000,4.6272e-11,
-3600000,4.4252e-11,
-3700000,4.3082e-11,
-3800000,4.3884e-11,
-3900000,4.2698e-11,
-4000000,4.2581e-11,
-4100000,4.1481e-11,
-4200000,3.9143e-11,
-4300000,3.6868e-11,
-4400000,3.4604e-11,
-4500000,3.3271e-11,
-4600000,3.0861e-11,
-4700000,3.0173e-11,
-4800000,2.9459e-11,
-4900000,2.8275e-11,
-5000000,2.895e-11,
-4950000,2.8173e-11,
-4850000,2.9037e-11,
-4750000,2.9201e-11,
-4650000,3.0491e-11,
-4550000,3.2486e-11,
-4450000,3.4496e-11,
-4350000,3.6475e-11,
-4250000,3.8587e-11,
-4150000,4.1392e-11,
-4050000,4.167e-11,
-3950000,4.2757e-11,
-3850000,4.2935e-11,
-3750000,4.412e-11,
-3650000,4.3697e-11,
-3550000,4.3512e-11,
-3450000,4.5937e-11,
-3350000,5.058e-11,
-3250000,5.8833e-11,
-3150000,7.0083e-11,
-3050000,8.5756e-11,
-2950000,9.6266e-11,
-2850000,9.7446e-11,
-2750000,9.2061e-11,
-2650000,7.9263e-11,
-2550000,6.8039e-11,
-2450000,6.2222e-11,
-2350000,6.1143e-11,
-2250000,6.4486e-11,
-2150000,7.5733e-11,
-2050000,9.2875e-11,
-1950000,1.0175e-10,
-1850000,1.0306e-10,
-1750000,9.2097e-11,
-1650000,8.1935e-11,
-1550000,7.345e-11,
-1450000,7.736e-11,
-1350000,9.151e-11,
-1250000,1.207e-10,
-1150000,1.6514e-10,
-1050000,1.9627e-10,
-950000,1.8731e-10,
-850000,1.4991e-10,
-750000,1.0478e-10,
-650000,7.7738e-11,
-550000,6.5133e-11,
-450000,6.1675e-11,
-350000,6.6425e-11,
-250000,7.8138e-11,
-150000,9.5096e-11,
-50000,1.1575e-10,
50000,1.3218e-10,
150000,1.5152e-10,
