General parameters:
Start time: 2023              8             29              1             39      43.352355
Finish time: 2023              8             29              1             46       47.53324
Dwell time (ms): 3000.000000
Source chamber pressure: 2.00e+3
Differential chamber pressure: 6.08e-07
Sample chamber pressure: 3.58e-08
Example position (nm): -4150328.444762,-143533.604273,-1000000.000000
Rotation angle (udeg): 37499605.000000
==========
Instrument status: 
0:Data Directory:/icon/data/2023_08_MoS2_5um_hbn_sub/
1:Sample:MoS2
2:Comments:no
3:PinholePlate:#C13
4:z_Zero:4200
5:Operator:djw77/nav31/kw570
==========
zscan inputs: 
z_sep:50000
z_range:200000 -6000000
data_path:/icon/data/2023_08_MoS2_5um_hbn_sub/
example_pos:-4150328.4448     -143533.60427          -1000000
N_dwell:200
sampling_period:15
make_plots:1
m1:0.98976
m2:-0.0073571
==========
Detector params:
Sampling period (ms): 15.000000
N dwell: 200.000000
Filament current (A): 1.540000
Filament emission (mA): 1.916568
Solenoid current (A): NaN
Solenoid shim current (A): NaN
Lens params:
0  685
1  300
2  125
3      -0.002
4       -0.01
5       0.012
6         0.8
7         2.1
8         2.8
9  3000
10  1450
11         0.85
12   0
==========
Data:
z(nm),I(A)
200000,4.9253e-11,
100000,4.9381e-11,
0,4.9923e-11,
-100000,4.9975e-11,
-200000,4.9988e-11,
-300000,5.0237e-11,
-400000,5.1365e-11,
-500000,5.2314e-11,
-600000,5.2707e-11,
-700000,5.1952e-11,
-800000,5.3048e-11,
-900000,5.3714e-11,
-1000000,5.5009e-11,
-1100000,5.544e-11,
-1200000,5.5869e-11,
-1300000,5.616e-11,
-1400000,5.7464e-11,
-1500000,5.6467e-11,
-1600000,5.7398e-11,
-1700000,5.7992e-11,
-1800000,5.8168e-11,
-1900000,5.7785e-11,
-2000000,5.7755e-11,
-2100000,5.8214e-11,
-2200000,5.6693e-11,
-2300000,5.7224e-11,
-2400000,5.6417e-11,
-2500000,5.6173e-11,
-2600000,5.6592e-11,
-2700000,5.5477e-11,
-2800000,5.5306e-11,
-2900000,5.3366e-11,
-3000000,5.3847e-11,
-3100000,5.1453e-11,
-3200000,5.1341e-11,
-3300000,5.0739e-11,
-3400000,5.0064e-11,
-3500000,4.9321e-11,
-3600000,4.6688e-11,
-3700000,4.8075e-11,
-3800000,4.6103e-11,
-3900000,4.5714e-11,
-4000000,4.5419e-11,
-4100000,4.3699e-11,
-4200000,4.3084e-11,
-4300000,4.2242e-11,
-4400000,4.2723e-11,
-4500000,4.1581e-11,
-4600000,4.0237e-11,
-4700000,4.067e-11,
-4800000,3.9224e-11,
-4900000,3.8468e-11,
-5000000,3.7832e-11,
-5100000,3.7405e-11,
-5200000,3.6678e-11,
-5300000,3.6681e-11,
-5400000,3.6194e-11,
-5500000,3.4774e-11,
-5600000,3.4517e-11,
-5700000,3.4585e-11,
-5800000,3.3915e-11,
-5900000,3.3947e-11,
-6000000,3.3171e-11,
-5950000,3.2508e-11,
-5850000,3.3651e-11,
-5750000,3.4251e-11,
-5650000,3.4838e-11,
-5550000,3.5023e-11,
-5450000,3.5877e-11,
-5350000,3.552e-11,
-5250000,3.5974e-11,
-5150000,3.621e-11,
-5050000,3.7377e-11,
-4950000,3.7786e-11,
-4850000,3.7696e-11,
-4750000,3.8983e-11,
-4650000,4.1272e-11,
-4550000,4.0998e-11,
-4450000,4.1051e-11,
-4350000,4.1103e-11,
-4250000,4.2442e-11,
-4150000,4.3118e-11,
-4050000,4.4487e-11,
-3950000,4.4988e-11,
-3850000,4.5764e-11,
-3750000,4.649e-11,
-3650000,4.7893e-11,
-3550000,4.8958e-11,
-3450000,4.9361e-11,
-3350000,4.985e-11,
-3250000,5.2283e-11,
-3150000,5.1871e-11,
-3050000,5.252e-11,
-2950000,5.3726e-11,
-2850000,5.4418e-11,
-2750000,5.41e-11,
-2650000,5.5693e-11,
-2550000,5.6233e-11,
-2450000,5.6328e-11,
-2350000,5.7796e-11,
-2250000,5.7633e-11,
-2150000,5.8398e-11,
-2050000,5.803e-11,
-1950000,5.6757e-11,
-1850000,5.7661e-11,
-1750000,5.8901e-11,
-1650000,5.6845e-11,
-1550000,5.7804e-11,
-1450000,5.685e-11,
-1350000,5.6863e-11,
-1250000,5.6686e-11,
-1150000,5.6189e-11,
-1050000,5.7055e-11,
-950000,5.4541e-11,
-850000,5.3777e-11,
-750000,5.4778e-11,
-650000,5.338e-11,
-550000,5.3429e-11,
-450000,5.3195e-11,
-350000,5.0405e-11,
-250000,5.0533e-11,
-150000,4.8997e-11,
-50000,5.0305e-11,
50000,5.0412e-11,
150000,5.0092e-11,
