General parameters:
Start time: 2023              9             26             17             28      20.251584
Finish time: 2023              9             26             17             37       24.46561
Dwell time (ms): 3750.000000
Source chamber pressure: Error-S
Differential chamber pressure: 6.43e-07
Sample chamber pressure: 3.67e-08
Example position (nm): -4610000.000000,228000.000000,-2700000.000000
Rotation angle (udeg): 125000235.000000
==========
Instrument status: 
0:Data Directory:/icon/data/2023_08_MoS2_5um_hbn_sub/
1:Sample:MoS2
2:Comments:no
3:PinholePlate:#C13
4:z_Zero:4200
5:Operator:djw77/nav31/kw570
==========
zscan inputs: 
z_sep:50000
z_range:500000 -6000000
data_path:/icon/data/2023_08_MoS2_5um_hbn_sub/
example_pos:-4610000   228000 -2700000
N_dwell:250
sampling_period:15
make_plots:1
m1:0.98976
m2:-0.0073571
==========
Detector params:
Sampling period (ms): 15.000000
N dwell: 250.000000
Filament current (A): 1.540000
Filament emission (mA): 2.805084
Solenoid current (A): NaN
Solenoid shim current (A): NaN
Lens params:
0  685
1  300
2  125
3      -0.002
4       -0.01
5       0.012
6         0.8
7         2.1
8         2.8
9  3000
10  1450
11         0.85
12   0
==========
Data:
z(nm),I(A)
500000,2.0468e-10,
400000,2.2205e-10,
300000,2.2001e-10,
200000,2.5082e-10,
100000,2.6132e-10,
0,2.6151e-10,
-100000,2.6516e-10,
-200000,2.762e-10,
-300000,2.8066e-10,
-400000,2.9353e-10,
-500000,2.9823e-10,
-600000,2.9619e-10,
-700000,3.1521e-10,
-800000,3.4356e-10,
-900000,3.5171e-10,
-1000000,3.4559e-10,
-1100000,3.434e-10,
-1200000,3.3666e-10,
-1300000,3.272e-10,
-1400000,3.2538e-10,
-1500000,3.2188e-10,
-1600000,3.1405e-10,
-1700000,3.0744e-10,
-1800000,3.0656e-10,
-1900000,2.9827e-10,
-2000000,2.9325e-10,
-2100000,2.8878e-10,
-2200000,2.9021e-10,
-2300000,2.8927e-10,
-2400000,2.9044e-10,
-2500000,2.9138e-10,
-2600000,2.8983e-10,
-2700000,2.8581e-10,
-2800000,2.8091e-10,
-2900000,2.6825e-10,
-3000000,2.5377e-10,
-3100000,2.4328e-10,
-3200000,2.3277e-10,
-3300000,2.2286e-10,
-3400000,2.1399e-10,
-3500000,2.0829e-10,
-3600000,2.0044e-10,
-3700000,1.9322e-10,
-3800000,1.849e-10,
-3900000,1.796e-10,
-4000000,1.7634e-10,
-4100000,1.6782e-10,
-4200000,1.5617e-10,
-4300000,1.4749e-10,
-4400000,1.4176e-10,
-4500000,1.3534e-10,
-4600000,1.2971e-10,
-4700000,1.241e-10,
-4800000,1.2206e-10,
-4900000,1.1904e-10,
-5000000,1.1616e-10,
-5100000,1.1418e-10,
-5200000,1.1157e-10,
-5300000,1.0949e-10,
-5400000,1.0962e-10,
-5500000,1.099e-10,
-5600000,1.0862e-10,
-5700000,1.0324e-10,
-5800000,1.0189e-10,
-5900000,9.8101e-11,
-6000000,9.6276e-11,
-5950000,9.7398e-11,
-5850000,9.7788e-11,
-5750000,1.0198e-10,
-5650000,1.0572e-10,
-5550000,1.089e-10,
-5450000,1.094e-10,
-5350000,1.0974e-10,
-5250000,1.1048e-10,
-5150000,1.128e-10,
-5050000,1.168e-10,
-4950000,1.192e-10,
-4850000,1.197e-10,
-4750000,1.2387e-10,
-4650000,1.2641e-10,
-4550000,1.324e-10,
-4450000,1.3798e-10,
-4350000,1.4339e-10,
-4250000,1.5333e-10,
-4150000,1.5978e-10,
-4050000,1.687e-10,
-3950000,1.7835e-10,
-3850000,1.838e-10,
-3750000,1.9032e-10,
-3650000,1.957e-10,
-3550000,2.0591e-10,
-3450000,2.1131e-10,
-3350000,2.1856e-10,
-3250000,2.3032e-10,
-3150000,2.391e-10,
-3050000,2.4735e-10,
-2950000,2.6042e-10,
-2850000,2.7413e-10,
-2750000,2.8114e-10,
-2650000,2.8763e-10,
-2550000,2.8852e-10,
-2450000,2.8773e-10,
-2350000,2.8982e-10,
-2250000,2.878e-10,
-2150000,2.8832e-10,
-2050000,2.896e-10,
-1950000,2.8974e-10,
-1850000,2.8969e-10,
-1750000,2.9943e-10,
-1650000,3.0753e-10,
-1550000,3.0981e-10,
-1450000,3.1557e-10,
-1350000,3.228e-10,
-1250000,3.2548e-10,
-1150000,3.3382e-10,
-1050000,3.4093e-10,
-950000,3.4632e-10,
-850000,3.4382e-10,
-750000,3.3329e-10,
-650000,2.9459e-10,
-550000,2.9442e-10,
-450000,2.8861e-10,
-350000,2.6797e-10,
-250000,2.5978e-10,
-150000,2.5239e-10,
-50000,2.3806e-10,
50000,2.2668e-10,
150000,2.3891e-10,
250000,2.1414e-10,
350000,2.1817e-10,
450000,2.0193e-10,
