General parameters:
Start time: 2023              8             22             14              0      37.945076
Finish time: 2023              8             22             14              6      33.808999
Dwell time (ms): 3000.000000
Source chamber pressure: 2.00e+3
Differential chamber pressure: 7.98e-07
Sample chamber pressure: 3.78e-08
Example position (nm): -2984574.122658,182478.508580,-1000000.000000
Rotation angle (udeg): 122500055.000000
==========
Instrument status: 
0:Data Directory:/icon/data/2023_08_MoS2_5um_hbn_sub/
1:Sample:MoS2
2:Comments:no
3:PinholePlate:#C13
4:z_Zero:4200
5:Operator:djw77/nav31/kw570
==========
zscan inputs: 
z_sep:50000
z_range:200000 -5000000
data_path:/icon/data/2023_08_MoS2_5um_hbn_sub/
example_pos:-2984574.1227      182478.50858          -1000000
N_dwell:200
sampling_period:15
make_plots:0
m1:0.98976
m2:-0.0073571
==========
Detector params:
Sampling period (ms): 15.000000
N dwell: 200.000000
Filament current (A): 1.540000
Filament emission (mA): 1.736676
Solenoid current (A): NaN
Solenoid shim current (A): NaN
Lens params:
0  685
1  300
2  125
3      -0.002
4       -0.01
5       0.012
6         0.8
7         2.1
8         2.8
9  3000
10  1450
11         0.85
12   0
==========
Data:
z(nm),I(A)
200000,4.6508e-11,
100000,4.5941e-11,
0,4.7075e-11,
-100000,4.5935e-11,
-200000,4.639e-11,
-300000,4.7023e-11,
-400000,4.6839e-11,
-500000,4.6657e-11,
-600000,4.8525e-11,
-700000,4.7674e-11,
-800000,4.7945e-11,
-900000,4.8106e-11,
-1000000,4.8146e-11,
-1100000,4.8303e-11,
-1200000,4.8964e-11,
-1300000,4.7923e-11,
-1400000,4.9095e-11,
-1500000,4.9442e-11,
-1600000,4.8558e-11,
-1700000,4.8653e-11,
-1800000,4.8181e-11,
-1900000,4.8222e-11,
-2000000,4.8922e-11,
-2100000,4.9358e-11,
-2200000,4.8336e-11,
-2300000,4.7165e-11,
-2400000,4.6494e-11,
-2500000,4.7485e-11,
-2600000,4.5254e-11,
-2700000,4.4911e-11,
-2800000,4.5404e-11,
-2900000,4.4025e-11,
-3000000,4.3884e-11,
-3100000,4.3574e-11,
-3200000,4.2201e-11,
-3300000,4.3382e-11,
-3400000,4.1811e-11,
-3500000,4.073e-11,
-3600000,4.0095e-11,
-3700000,3.9511e-11,
-3800000,3.9271e-11,
-3900000,3.7788e-11,
-4000000,3.6763e-11,
-4100000,3.5958e-11,
-4200000,3.5586e-11,
-4300000,3.5113e-11,
-4400000,3.3973e-11,
-4500000,3.5012e-11,
-4600000,3.2955e-11,
-4700000,3.1247e-11,
-4800000,3.1275e-11,
-4900000,3.1252e-11,
-5000000,3.0561e-11,
-4950000,3.1172e-11,
-4850000,3.1679e-11,
-4750000,3.0922e-11,
-4650000,3.1874e-11,
-4550000,3.4154e-11,
-4450000,3.3921e-11,
-4350000,3.5168e-11,
-4250000,3.5248e-11,
-4150000,3.641e-11,
-4050000,3.5019e-11,
-3950000,3.7653e-11,
-3850000,3.8533e-11,
-3750000,3.8193e-11,
-3650000,3.8937e-11,
-3550000,4.1038e-11,
-3450000,4.0283e-11,
-3350000,4.0807e-11,
-3250000,4.2292e-11,
-3150000,4.325e-11,
-3050000,4.3113e-11,
-2950000,4.5313e-11,
-2850000,4.4807e-11,
-2750000,4.4873e-11,
-2650000,4.5839e-11,
-2550000,4.5263e-11,
-2450000,4.7581e-11,
-2350000,4.6565e-11,
-2250000,4.7386e-11,
-2150000,4.8143e-11,
-2050000,4.78e-11,
-1950000,4.8837e-11,
-1850000,4.9323e-11,
-1750000,4.824e-11,
-1650000,4.8935e-11,
-1550000,4.9322e-11,
-1450000,4.8466e-11,
-1350000,4.9102e-11,
-1250000,4.9071e-11,
-1150000,4.8372e-11,
-1050000,4.8128e-11,
-950000,4.824e-11,
-850000,4.893e-11,
-750000,4.885e-11,
-650000,4.7885e-11,
-550000,4.7762e-11,
-450000,4.655e-11,
-350000,4.7837e-11,
-250000,4.7028e-11,
-150000,4.701e-11,
-50000,4.7776e-11,
50000,4.6063e-11,
150000,4.5459e-11,
