General parameters:
Start time: 2023              8             18             14             24      38.997087
Finish time: 2023              8             18             14             30      35.777368
Dwell time (ms): 3000.000000
Source chamber pressure: 2.00e+3
Differential chamber pressure: 7.87e-07
Sample chamber pressure: 3.84e-08
Example position (nm): -3144428.917411,302534.079862,-1000000.000000
Rotation angle (udeg): 109999830.000000
==========
Instrument status: 
0:Data Directory:/icon/data/2023_08_MoS2_5um_hbn_sub/
1:Sample:MoS2
2:Comments:no
3:PinholePlate:#C13
4:z_Zero:4200
5:Operator:djw77/nav31/kw570
==========
zscan inputs: 
z_sep:50000
z_range:200000 -5000000
data_path:/icon/data/2023_08_MoS2_5um_hbn_sub/
example_pos:-3144428.9174      302534.07986          -1000000
N_dwell:200
sampling_period:15
make_plots:1
m1:0.98976
m2:-0.0073571
==========
Detector params:
Sampling period (ms): 15.000000
N dwell: 200.000000
Filament current (A): 1.540000
Filament emission (mA): 1.664514
Solenoid current (A): NaN
Solenoid shim current (A): NaN
Lens params:
0  685
1  300
2  125
3      -0.002
4       -0.01
5       0.012
6         0.8
7         2.1
8         2.8
9  3000
10  1450
11         0.85
12   0
==========
Data:
z(nm),I(A)
200000,4.2737e-11,
100000,4.3006e-11,
0,4.3638e-11,
-100000,4.3157e-11,
-200000,4.3731e-11,
-300000,4.523e-11,
-400000,4.5171e-11,
-500000,4.8879e-11,
-600000,5.407e-11,
-700000,6.3423e-11,
-800000,8.0454e-11,
-900000,9.2158e-11,
-1000000,9.0209e-11,
-1100000,7.2387e-11,
-1200000,6.1067e-11,
-1300000,5.5346e-11,
-1400000,5.2281e-11,
-1500000,5.5163e-11,
-1600000,6.0851e-11,
-1700000,6.6765e-11,
-1800000,6.5956e-11,
-1900000,6.1683e-11,
-2000000,5.1648e-11,
-2100000,4.6648e-11,
-2200000,4.3259e-11,
-2300000,4.3983e-11,
-2400000,4.3748e-11,
-2500000,4.4549e-11,
-2600000,4.3049e-11,
-2700000,4.3601e-11,
-2800000,4.4014e-11,
-2900000,4.2307e-11,
-3000000,4.1103e-11,
-3100000,4.1824e-11,
-3200000,4.2919e-11,
-3300000,4.5473e-11,
-3400000,4.6098e-11,
-3500000,4.5319e-11,
-3600000,4.3952e-11,
-3700000,3.9194e-11,
-3800000,3.5894e-11,
-3900000,3.4377e-11,
-4000000,3.2679e-11,
-4100000,3.1621e-11,
-4200000,3.0751e-11,
-4300000,3.0236e-11,
-4400000,2.9381e-11,
-4500000,2.9232e-11,
-4600000,2.9028e-11,
-4700000,2.9794e-11,
-4800000,2.7516e-11,
-4900000,2.7447e-11,
-5000000,2.6376e-11,
-4950000,2.6795e-11,
-4850000,2.7635e-11,
-4750000,2.9223e-11,
-4650000,2.8759e-11,
-4550000,2.9327e-11,
-4450000,3.0034e-11,
-4350000,2.9434e-11,
-4250000,3.0588e-11,
-4150000,3.0878e-11,
-4050000,3.0988e-11,
-3950000,3.2307e-11,
-3850000,3.6028e-11,
-3750000,3.7187e-11,
-3650000,4.1694e-11,
-3550000,4.4164e-11,
-3450000,4.654e-11,
-3350000,4.5783e-11,
-3250000,4.3682e-11,
-3150000,4.2404e-11,
-3050000,4.109e-11,
-2950000,4.0697e-11,
-2850000,4.2395e-11,
-2750000,4.3635e-11,
-2650000,4.5438e-11,
-2550000,4.5299e-11,
-2450000,4.3878e-11,
-2350000,4.4251e-11,
-2250000,4.3081e-11,
-2150000,4.4409e-11,
-2050000,4.6546e-11,
-1950000,5.6068e-11,
-1850000,6.4217e-11,
-1750000,6.8179e-11,
-1650000,6.5554e-11,
-1550000,5.7874e-11,
-1450000,5.3614e-11,
-1350000,5.4208e-11,
-1250000,5.7485e-11,
-1150000,6.541e-11,
-1050000,7.958e-11,
-950000,9.3516e-11,
-850000,9.2024e-11,
-750000,7.3676e-11,
-650000,5.9417e-11,
-550000,5.1814e-11,
-450000,4.6843e-11,
-350000,4.5704e-11,
-250000,4.3918e-11,
-150000,4.3491e-11,
-50000,4.2869e-11,
50000,4.3652e-11,
150000,4.2795e-11,
