General parameters:
Start time: 2023              8             18             13             42      18.135965
Finish time: 2023              8             18             13             48      15.742212
Dwell time (ms): 3000.000000
Source chamber pressure: 2.00e+3
Differential chamber pressure: 7.90e-07
Sample chamber pressure: 3.84e-08
Example position (nm): -3701558.053745,228253.793181,-1000000.000000
Rotation angle (udeg): 74999855.000000
==========
Instrument status: 
0:Data Directory:/icon/data/2023_08_MoS2_5um_hbn_sub/
1:Sample:MoS2
2:Comments:no
3:PinholePlate:#C13
4:z_Zero:4200
5:Operator:djw77/nav31/kw570
==========
zscan inputs: 
z_sep:50000
z_range:200000 -5000000
data_path:/icon/data/2023_08_MoS2_5um_hbn_sub/
example_pos:-3701558.0537      228253.79318          -1000000
N_dwell:200
sampling_period:15
make_plots:1
m1:0.98976
m2:-0.0073571
==========
Detector params:
Sampling period (ms): 15.000000
N dwell: 200.000000
Filament current (A): 1.540000
Filament emission (mA): 1.672380
Solenoid current (A): NaN
Solenoid shim current (A): NaN
Lens params:
0  685
1  300
2  125
3      -0.002
4       -0.01
5       0.012
6         0.8
7         2.1
8         2.8
9  3000
10  1450
11         0.85
12   0
==========
Data:
z(nm),I(A)
200000,6.674e-11,
100000,6.6074e-11,
0,6.3344e-11,
-100000,5.8828e-11,
-200000,5.482e-11,
-300000,5.3645e-11,
-400000,5.1644e-11,
-500000,5.1852e-11,
-600000,5.3256e-11,
-700000,5.821e-11,
-800000,6.7465e-11,
-900000,7.9825e-11,
-1000000,8.4958e-11,
-1100000,8.2451e-11,
-1200000,7.6987e-11,
-1300000,7.0021e-11,
-1400000,6.2047e-11,
-1500000,5.8679e-11,
-1600000,5.7107e-11,
-1700000,5.7705e-11,
-1800000,6.0125e-11,
-1900000,6.2441e-11,
-2000000,6.1138e-11,
-2100000,5.4864e-11,
-2200000,5.1158e-11,
-2300000,5.0301e-11,
-2400000,4.8534e-11,
-2500000,4.778e-11,
-2600000,5.0317e-11,
-2700000,5.1313e-11,
-2800000,5.1541e-11,
-2900000,5.2866e-11,
-3000000,5.136e-11,
-3100000,4.7958e-11,
-3200000,4.5561e-11,
-3300000,4.163e-11,
-3400000,3.9049e-11,
-3500000,3.7491e-11,
-3600000,3.5883e-11,
-3700000,3.4509e-11,
-3800000,3.4241e-11,
-3900000,3.3594e-11,
-4000000,3.2209e-11,
-4100000,3.1719e-11,
-4200000,3.0424e-11,
-4300000,2.9343e-11,
-4400000,2.8394e-11,
-4500000,2.7695e-11,
-4600000,2.7188e-11,
-4700000,2.6173e-11,
-4800000,2.5858e-11,
-4900000,2.4963e-11,
-5000000,2.3952e-11,
-4950000,2.3953e-11,
-4850000,2.4689e-11,
-4750000,2.6042e-11,
-4650000,2.6555e-11,
-4550000,2.6927e-11,
-4450000,2.8548e-11,
-4350000,2.8338e-11,
-4250000,3.0203e-11,
-4150000,3.0687e-11,
-4050000,3.1355e-11,
-3950000,3.272e-11,
-3850000,3.328e-11,
-3750000,3.3827e-11,
-3650000,3.5399e-11,
-3550000,3.6967e-11,
-3450000,3.7873e-11,
-3350000,3.9736e-11,
-3250000,4.3318e-11,
-3150000,4.5556e-11,
-3050000,4.9755e-11,
-2950000,5.2401e-11,
-2850000,5.4046e-11,
-2750000,5.2102e-11,
-2650000,5.1668e-11,
-2550000,4.9238e-11,
-2450000,4.7549e-11,
-2350000,4.8178e-11,
-2250000,4.9636e-11,
-2150000,5.3611e-11,
-2050000,6.0243e-11,
-1950000,6.3679e-11,
-1850000,6.5164e-11,
-1750000,5.9858e-11,
-1650000,5.6593e-11,
-1550000,5.6667e-11,
-1450000,5.7895e-11,
-1350000,6.4738e-11,
-1250000,7.4468e-11,
-1150000,9.1136e-11,
-1050000,9.6878e-11,
-950000,9.6384e-11,
-850000,8.3536e-11,
-750000,6.5686e-11,
-650000,5.5172e-11,
-550000,4.9714e-11,
-450000,4.8759e-11,
-350000,5.0654e-11,
-250000,5.5549e-11,
-150000,5.816e-11,
-50000,6.268e-11,
50000,6.6274e-11,
150000,7.2431e-11,
