General parameters:
Start time: 2023              8             22             14              6      38.930984
Finish time: 2023              8             22             14             12      33.129925
Dwell time (ms): 3000.000000
Source chamber pressure: 2.00e+3
Differential chamber pressure: 7.98e-07
Sample chamber pressure: 3.78e-08
Example position (nm): -2954064.478723,166358.677517,-1000000.000000
Rotation angle (udeg): 124999975.000000
==========
Instrument status: 
0:Data Directory:/icon/data/2023_08_MoS2_5um_hbn_sub/
1:Sample:MoS2
2:Comments:no
3:PinholePlate:#C13
4:z_Zero:4200
5:Operator:djw77/nav31/kw570
==========
zscan inputs: 
z_sep:50000
z_range:200000 -5000000
data_path:/icon/data/2023_08_MoS2_5um_hbn_sub/
example_pos:-2954064.4787      166358.67752          -1000000
N_dwell:200
sampling_period:15
make_plots:0
m1:0.98976
m2:-0.0073571
==========
Detector params:
Sampling period (ms): 15.000000
N dwell: 200.000000
Filament current (A): 1.540000
Filament emission (mA): 1.735650
Solenoid current (A): NaN
Solenoid shim current (A): NaN
Lens params:
0  685
1  300
2  125
3      -0.002
4       -0.01
5       0.012
6         0.8
7         2.1
8         2.8
9  3000
10  1450
11         0.85
12   0
==========
Data:
z(nm),I(A)
200000,4.5804e-11,
100000,4.7742e-11,
0,4.7147e-11,
-100000,4.6206e-11,
-200000,4.666e-11,
-300000,4.7853e-11,
-400000,4.76e-11,
-500000,4.7244e-11,
-600000,4.7537e-11,
-700000,4.853e-11,
-800000,4.7651e-11,
-900000,4.8416e-11,
-1000000,4.9251e-11,
-1100000,4.8088e-11,
-1200000,4.8972e-11,
-1300000,4.9366e-11,
-1400000,4.9296e-11,
-1500000,4.9333e-11,
-1600000,4.8985e-11,
-1700000,4.8734e-11,
-1800000,4.8624e-11,
-1900000,4.9208e-11,
-2000000,4.937e-11,
-2100000,4.8633e-11,
-2200000,4.7702e-11,
-2300000,4.8708e-11,
-2400000,4.7981e-11,
-2500000,4.6596e-11,
-2600000,4.6356e-11,
-2700000,4.5939e-11,
-2800000,4.4467e-11,
-2900000,4.5255e-11,
-3000000,4.4135e-11,
-3100000,4.3338e-11,
-3200000,4.2993e-11,
-3300000,4.1736e-11,
-3400000,4.2513e-11,
-3500000,4.0616e-11,
-3600000,4.006e-11,
-3700000,3.8726e-11,
-3800000,3.842e-11,
-3900000,3.7613e-11,
-4000000,3.6407e-11,
-4100000,3.6504e-11,
-4200000,3.5692e-11,
-4300000,3.5652e-11,
-4400000,3.4753e-11,
-4500000,3.3514e-11,
-4600000,3.3245e-11,
-4700000,3.2516e-11,
-4800000,3.1834e-11,
-4900000,3.157e-11,
-5000000,3.1269e-11,
-4950000,3.0378e-11,
-4850000,3.1108e-11,
-4750000,3.1782e-11,
-4650000,3.349e-11,
-4550000,3.3298e-11,
-4450000,3.3823e-11,
-4350000,3.3406e-11,
-4250000,3.5707e-11,
-4150000,3.518e-11,
-4050000,3.6048e-11,
-3950000,3.6782e-11,
-3850000,3.7832e-11,
-3750000,3.8217e-11,
-3650000,3.9459e-11,
-3550000,3.9531e-11,
-3450000,4.0478e-11,
-3350000,4.1212e-11,
-3250000,4.1827e-11,
-3150000,4.2942e-11,
-3050000,4.3421e-11,
-2950000,4.36e-11,
-2850000,4.4865e-11,
-2750000,4.5974e-11,
-2650000,4.5081e-11,
-2550000,4.7029e-11,
-2450000,4.6443e-11,
-2350000,4.7746e-11,
-2250000,4.8017e-11,
-2150000,4.7897e-11,
-2050000,4.8478e-11,
-1950000,4.8836e-11,
-1850000,4.8755e-11,
-1750000,4.808e-11,
-1650000,4.9606e-11,
-1550000,4.8674e-11,
-1450000,4.908e-11,
-1350000,4.8371e-11,
-1250000,4.9771e-11,
-1150000,4.8842e-11,
-1050000,4.7874e-11,
-950000,4.8306e-11,
-850000,4.9293e-11,
-750000,4.7984e-11,
-650000,4.8115e-11,
-550000,4.8005e-11,
-450000,4.6532e-11,
-350000,4.8158e-11,
-250000,4.6711e-11,
-150000,4.769e-11,
-50000,4.733e-11,
50000,4.7854e-11,
150000,4.6312e-11,
