General parameters:
Start time: 2023              8             18             14              0      26.032581
Finish time: 2023              8             18             14              6      27.443246
Dwell time (ms): 3000.000000
Source chamber pressure: 2.00e+3
Differential chamber pressure: 7.89e-07
Sample chamber pressure: 3.84e-08
Example position (nm): -3469000.000000,302000.000000,-1000000.000000
Rotation angle (udeg): 89999980.000000
==========
Instrument status: 
0:Data Directory:/icon/data/2023_08_MoS2_5um_hbn_sub/
1:Sample:MoS2
2:Comments:no
3:PinholePlate:#C13
4:z_Zero:4200
5:Operator:djw77/nav31/kw570
==========
zscan inputs: 
z_sep:50000
z_range:200000 -5000000
data_path:/icon/data/2023_08_MoS2_5um_hbn_sub/
example_pos:-3469000   302000 -1000000
N_dwell:200
sampling_period:15
make_plots:1
m1:0.98976
m2:-0.0073571
==========
Detector params:
Sampling period (ms): 15.000000
N dwell: 200.000000
Filament current (A): 1.540000
Filament emission (mA): 1.670670
Solenoid current (A): NaN
Solenoid shim current (A): NaN
Lens params:
0  685
1  300
2  125
3      -0.002
4       -0.01
5       0.012
6         0.8
7         2.1
8         2.8
9  3000
10  1450
11         0.85
12   0
==========
Data:
z(nm),I(A)
200000,5.953e-11,
100000,5.9838e-11,
0,5.7911e-11,
-100000,5.602e-11,
-200000,5.1179e-11,
-300000,5.0666e-11,
-400000,5.0734e-11,
-500000,5.0185e-11,
-600000,5.4671e-11,
-700000,6.0759e-11,
-800000,6.8871e-11,
-900000,7.8976e-11,
-1000000,8.396e-11,
-1100000,8.4683e-11,
-1200000,7.3282e-11,
-1300000,6.6437e-11,
-1400000,5.8585e-11,
-1500000,5.5123e-11,
-1600000,5.2106e-11,
-1700000,4.9091e-11,
-1800000,4.8281e-11,
-1900000,4.7337e-11,
-2000000,4.6588e-11,
-2100000,4.548e-11,
-2200000,4.672e-11,
-2300000,4.8986e-11,
-2400000,5.2941e-11,
-2500000,5.5566e-11,
-2600000,5.4016e-11,
-2700000,5.0931e-11,
-2800000,4.5219e-11,
-2900000,4.0568e-11,
-3000000,3.8353e-11,
-3100000,3.7092e-11,
-3200000,3.6351e-11,
-3300000,3.6306e-11,
-3400000,3.6368e-11,
-3500000,3.5883e-11,
-3600000,3.5268e-11,
-3700000,3.4911e-11,
-3800000,3.3796e-11,
-3900000,3.1716e-11,
-4000000,3.0329e-11,
-4100000,2.8622e-11,
-4200000,2.8039e-11,
-4300000,2.7057e-11,
-4400000,2.8153e-11,
-4500000,2.6175e-11,
-4600000,2.5418e-11,
-4700000,2.3826e-11,
-4800000,2.4769e-11,
-4900000,2.4051e-11,
-5000000,2.3199e-11,
-4950000,2.3514e-11,
-4850000,2.4487e-11,
-4750000,2.5765e-11,
-4650000,2.5097e-11,
-4550000,2.6008e-11,
-4450000,2.7481e-11,
-4350000,2.7086e-11,
-4250000,2.8638e-11,
-4150000,2.8976e-11,
-4050000,2.9911e-11,
-3950000,3.1028e-11,
-3850000,3.2001e-11,
-3750000,3.3382e-11,
-3650000,3.5184e-11,
-3550000,3.4455e-11,
-3450000,3.6205e-11,
-3350000,3.7153e-11,
-3250000,3.6957e-11,
-3150000,3.7083e-11,
-3050000,3.8095e-11,
-2950000,3.8721e-11,
-2850000,4.2431e-11,
-2750000,4.861e-11,
-2650000,5.2057e-11,
-2550000,5.4904e-11,
-2450000,5.4438e-11,
-2350000,5.0907e-11,
-2250000,4.8606e-11,
-2150000,4.5798e-11,
-2050000,4.587e-11,
-1950000,4.5801e-11,
-1850000,4.6514e-11,
-1750000,4.6681e-11,
-1650000,4.9718e-11,
-1550000,5.0972e-11,
-1450000,5.3718e-11,
-1350000,5.8447e-11,
-1250000,6.7968e-11,
-1150000,7.5596e-11,
-1050000,8.8676e-11,
-950000,8.2424e-11,
-850000,7.7708e-11,
-750000,6.6947e-11,
-650000,5.7385e-11,
-550000,5.2819e-11,
-450000,5.0342e-11,
-350000,4.9159e-11,
-250000,5.1182e-11,
-150000,5.2937e-11,
-50000,5.6258e-11,
50000,5.75e-11,
150000,5.8235e-11,
