General parameters:
Start time: 2023              8             21             14             12      38.420973
Finish time: 2023              8             21             14             18       32.73609
Dwell time (ms): 3000.000000
Source chamber pressure: 2.00e+3
Differential chamber pressure: 7.97e-07
Sample chamber pressure: 3.84e-08
Example position (nm): -3862295.033902,127593.201309,-1000000.000000
Rotation angle (udeg): 60000300.000000
==========
Instrument status: 
0:Data Directory:/icon/data/2023_08_MoS2_5um_hbn_sub/
1:Sample:MoS2
2:Comments:no
3:PinholePlate:#C13
4:z_Zero:4200
5:Operator:djw77/nav31/kw570
==========
zscan inputs: 
z_sep:50000
z_range:200000 -5000000
data_path:/icon/data/2023_08_MoS2_5um_hbn_sub/
example_pos:-3862295.0339      127593.20131          -1000000
N_dwell:200
sampling_period:15
make_plots:0
m1:0.98976
m2:-0.0073571
==========
Detector params:
Sampling period (ms): 15.000000
N dwell: 200.000000
Filament current (A): 1.540000
Filament emission (mA): 1.743516
Solenoid current (A): NaN
Solenoid shim current (A): NaN
Lens params:
0  685
1  300
2  125
3      -0.002
4       -0.01
5       0.012
6         0.8
7         2.1
8         2.8
9  3000
10  1450
11         0.85
12   0
==========
Data:
z(nm),I(A)
200000,4.1465e-11,
100000,3.9932e-11,
0,4.0716e-11,
-100000,4.0907e-11,
-200000,4.1102e-11,
-300000,4.113e-11,
-400000,4.1591e-11,
-500000,4.2752e-11,
-600000,4.3002e-11,
-700000,4.421e-11,
-800000,4.4472e-11,
-900000,4.4519e-11,
-1000000,4.5124e-11,
-1100000,4.451e-11,
-1200000,4.5961e-11,
-1300000,4.5543e-11,
-1400000,4.7268e-11,
-1500000,4.7203e-11,
-1600000,4.6833e-11,
-1700000,4.7925e-11,
-1800000,4.6601e-11,
-1900000,4.7183e-11,
-2000000,4.7189e-11,
-2100000,4.6265e-11,
-2200000,4.667e-11,
-2300000,4.6669e-11,
-2400000,4.5811e-11,
-2500000,4.5152e-11,
-2600000,4.5114e-11,
-2700000,4.3904e-11,
-2800000,4.4492e-11,
-2900000,4.4027e-11,
-3000000,4.1968e-11,
-3100000,4.1726e-11,
-3200000,4.213e-11,
-3300000,4.148e-11,
-3400000,4.0544e-11,
-3500000,3.9386e-11,
-3600000,3.8342e-11,
-3700000,3.8244e-11,
-3800000,3.8261e-11,
-3900000,3.6372e-11,
-4000000,3.709e-11,
-4100000,3.5764e-11,
-4200000,3.4826e-11,
-4300000,3.4507e-11,
-4400000,3.446e-11,
-4500000,3.3099e-11,
-4600000,3.1957e-11,
-4700000,3.2152e-11,
-4800000,3.208e-11,
-4900000,3.0443e-11,
-5000000,3.0106e-11,
-4950000,3.0406e-11,
-4850000,3.1117e-11,
-4750000,3.2039e-11,
-4650000,3.2129e-11,
-4550000,3.3067e-11,
-4450000,3.3222e-11,
-4350000,3.3667e-11,
-4250000,3.4446e-11,
-4150000,3.5088e-11,
-4050000,3.5497e-11,
-3950000,3.5876e-11,
-3850000,3.7172e-11,
-3750000,3.7355e-11,
-3650000,3.8146e-11,
-3550000,3.9527e-11,
-3450000,3.9673e-11,
-3350000,4.0595e-11,
-3250000,4.0539e-11,
-3150000,4.254e-11,
-3050000,4.1725e-11,
-2950000,4.2546e-11,
-2850000,4.4126e-11,
-2750000,4.4034e-11,
-2650000,4.5532e-11,
-2550000,4.5242e-11,
-2450000,4.6195e-11,
-2350000,4.5504e-11,
-2250000,4.6526e-11,
-2150000,4.7356e-11,
-2050000,4.6652e-11,
-1950000,4.7911e-11,
-1850000,4.7526e-11,
-1750000,4.7095e-11,
-1650000,4.7079e-11,
-1550000,4.6729e-11,
-1450000,4.7031e-11,
-1350000,4.6796e-11,
-1250000,4.6449e-11,
-1150000,4.6253e-11,
-1050000,4.585e-11,
-950000,4.504e-11,
-850000,4.5167e-11,
-750000,4.385e-11,
-650000,4.43e-11,
-550000,4.2717e-11,
-450000,4.264e-11,
-350000,4.2435e-11,
-250000,4.2515e-11,
-150000,4.0843e-11,
-50000,4.0835e-11,
50000,3.9744e-11,
150000,4.0354e-11,
