General parameters:
Start time: 2023              8             19             14              2      36.175604
Finish time: 2023              8             19             14              8      34.890794
Dwell time (ms): 3000.000000
Source chamber pressure: 2.00e+3
Differential chamber pressure: 7.96e-07
Sample chamber pressure: 3.88e-08
Example position (nm): -4008608.419652,-34638.051658,-1000000.000000
Rotation angle (udeg): 50000045.000000
==========
Instrument status: 
0:Data Directory:/icon/data/2023_08_MoS2_5um_hbn_sub/
1:Sample:MoS2
2:Comments:no
3:PinholePlate:#C13
4:z_Zero:4200
5:Operator:djw77/nav31/kw570
==========
zscan inputs: 
z_sep:50000
z_range:200000 -5000000
data_path:/icon/data/2023_08_MoS2_5um_hbn_sub/
example_pos:-4008608.4197     -34638.051658          -1000000
N_dwell:200
sampling_period:15
make_plots:0
m1:0.98976
m2:-0.0073571
==========
Detector params:
Sampling period (ms): 15.000000
N dwell: 200.000000
Filament current (A): 1.540000
Filament emission (mA): 1.681956
Solenoid current (A): NaN
Solenoid shim current (A): NaN
Lens params:
0  685
1  300
2  125
3      -0.002
4       -0.01
5       0.012
6         0.8
7         2.1
8         2.8
9  3000
10  1450
11         0.85
12   0
==========
Data:
z(nm),I(A)
200000,4.3878e-11,
100000,4.4052e-11,
0,4.1374e-11,
-100000,4.1931e-11,
-200000,4.5011e-11,
-300000,4.3789e-11,
-400000,4.3752e-11,
-500000,4.6921e-11,
-600000,5.0997e-11,
-700000,5.5003e-11,
-800000,5.8454e-11,
-900000,6.0977e-11,
-1000000,6.5501e-11,
-1100000,6.9412e-11,
-1200000,7.0625e-11,
-1300000,6.7945e-11,
-1400000,6.387e-11,
-1500000,6.232e-11,
-1600000,6.0095e-11,
-1700000,5.9065e-11,
-1800000,5.6625e-11,
-1900000,5.6612e-11,
-2000000,5.4537e-11,
-2100000,5.3695e-11,
-2200000,5.2558e-11,
-2300000,5.1871e-11,
-2400000,5.12e-11,
-2500000,5.128e-11,
-2600000,5.0413e-11,
-2700000,4.9528e-11,
-2800000,4.7446e-11,
-2900000,4.6309e-11,
-3000000,4.63e-11,
-3100000,4.4809e-11,
-3200000,4.3685e-11,
-3300000,4.3545e-11,
-3400000,4.1302e-11,
-3500000,4.1465e-11,
-3600000,4.0286e-11,
-3700000,3.851e-11,
-3800000,3.6558e-11,
-3900000,3.6417e-11,
-4000000,3.4139e-11,
-4100000,3.3873e-11,
-4200000,3.1328e-11,
-4300000,3.0664e-11,
-4400000,2.9381e-11,
-4500000,2.8066e-11,
-4600000,2.8522e-11,
-4700000,2.7076e-11,
-4800000,2.689e-11,
-4900000,2.5978e-11,
-5000000,2.5736e-11,
-4950000,2.4983e-11,
-4850000,2.6539e-11,
-4750000,2.7944e-11,
-4650000,2.8261e-11,
-4550000,2.8556e-11,
-4450000,2.8652e-11,
-4350000,3.0246e-11,
-4250000,3.1107e-11,
-4150000,3.1836e-11,
-4050000,3.3807e-11,
-3950000,3.5044e-11,
-3850000,3.6999e-11,
-3750000,3.8051e-11,
-3650000,3.9274e-11,
-3550000,4.0826e-11,
-3450000,4.2097e-11,
-3350000,4.1843e-11,
-3250000,4.1949e-11,
-3150000,4.3898e-11,
-3050000,4.5194e-11,
-2950000,4.6211e-11,
-2850000,4.7216e-11,
-2750000,4.8999e-11,
-2650000,4.9286e-11,
-2550000,5.0696e-11,
-2450000,5.1604e-11,
-2350000,5.2229e-11,
-2250000,5.1279e-11,
-2150000,5.4061e-11,
-2050000,5.3477e-11,
-1950000,5.5568e-11,
-1850000,5.6498e-11,
-1750000,5.8699e-11,
-1650000,6.0384e-11,
-1550000,6.35e-11,
-1450000,6.5464e-11,
-1350000,6.8416e-11,
-1250000,7.3629e-11,
-1150000,7.72e-11,
-1050000,7.7827e-11,
-950000,7.0148e-11,
-850000,6.8666e-11,
-750000,6.2572e-11,
-650000,5.7551e-11,
-550000,5.2795e-11,
-450000,4.7937e-11,
-350000,4.6851e-11,
-250000,4.6069e-11,
-150000,4.4645e-11,
-50000,4.3348e-11,
50000,4.5966e-11,
150000,4.4483e-11,
