General parameters:
Start time: 2023              8             29              3              5      27.130324
Finish time: 2023              8             29              3             12      30.263068
Dwell time (ms): 3000.000000
Source chamber pressure: 2.00e+3
Differential chamber pressure: 6.06e-07
Sample chamber pressure: 3.58e-08
Example position (nm): -3813523.081217,180065.634118,-1000000.000000
Rotation angle (udeg): 67500340.000000
==========
Instrument status: 
0:Data Directory:/icon/data/2023_08_MoS2_5um_hbn_sub/
1:Sample:MoS2
2:Comments:no
3:PinholePlate:#C13
4:z_Zero:4200
5:Operator:djw77/nav31/kw570
==========
zscan inputs: 
z_sep:50000
z_range:200000 -6000000
data_path:/icon/data/2023_08_MoS2_5um_hbn_sub/
example_pos:-3813523.0812      180065.63412          -1000000
N_dwell:200
sampling_period:15
make_plots:1
m1:0.98976
m2:-0.0073571
==========
Detector params:
Sampling period (ms): 15.000000
N dwell: 200.000000
Filament current (A): 1.540000
Filament emission (mA): 1.922040
Solenoid current (A): NaN
Solenoid shim current (A): NaN
Lens params:
0  685
1  300
2  125
3      -0.002
4       -0.01
5       0.012
6         0.8
7         2.1
8         2.8
9  3000
10  1450
11         0.85
12   0
==========
Data:
z(nm),I(A)
200000,2.0775e-10,
100000,1.9519e-10,
0,1.6421e-10,
-100000,1.4538e-10,
-200000,1.1537e-10,
-300000,9.514e-11,
-400000,8.4422e-11,
-500000,8.0461e-11,
-600000,8.9494e-11,
-700000,1.1708e-10,
-800000,1.7712e-10,
-900000,2.5785e-10,
-1000000,2.9235e-10,
-1100000,2.785e-10,
-1200000,2.2076e-10,
-1300000,1.4888e-10,
-1400000,1.1755e-10,
-1500000,1.0397e-10,
-1600000,1.0787e-10,
-1700000,1.2476e-10,
-1800000,1.5269e-10,
-1900000,1.6425e-10,
-2000000,1.5603e-10,
-2100000,1.3652e-10,
-2200000,1.057e-10,
-2300000,8.7304e-11,
-2400000,8.2214e-11,
-2500000,9.2605e-11,
-2600000,1.1694e-10,
-2700000,1.502e-10,
-2800000,1.7811e-10,
-2900000,1.8836e-10,
-3000000,1.7928e-10,
-3100000,1.494e-10,
-3200000,1.1429e-10,
-3300000,8.4852e-11,
-3400000,6.7858e-11,
-3500000,6.1098e-11,
-3600000,6.0187e-11,
-3700000,6.2643e-11,
-3800000,6.6149e-11,
-3900000,6.7419e-11,
-4000000,7.0407e-11,
-4100000,6.9733e-11,
-4200000,6.5935e-11,
-4300000,5.9171e-11,
-4400000,5.3189e-11,
-4500000,4.6518e-11,
-4600000,4.3403e-11,
-4700000,3.9579e-11,
-4800000,3.8196e-11,
-4900000,3.6031e-11,
-5000000,3.5471e-11,
-5100000,3.4942e-11,
-5200000,3.6079e-11,
-5300000,3.4725e-11,
-5400000,3.3887e-11,
-5500000,3.4643e-11,
-5600000,3.4254e-11,
-5700000,3.3257e-11,
-5800000,3.198e-11,
-5900000,3.2697e-11,
-6000000,3.1831e-11,
-5950000,3.2162e-11,
-5850000,3.2006e-11,
-5750000,3.3064e-11,
-5650000,3.3336e-11,
-5550000,3.3878e-11,
-5450000,3.4164e-11,
-5350000,3.4744e-11,
-5250000,3.4286e-11,
-5150000,3.519e-11,
-5050000,3.5357e-11,
-4950000,3.5712e-11,
-4850000,3.7855e-11,
-4750000,3.805e-11,
-4650000,4.1712e-11,
-4550000,4.4384e-11,
-4450000,5.0673e-11,
-4350000,5.6783e-11,
-4250000,6.3429e-11,
-4150000,6.7757e-11,
-4050000,7.1227e-11,
-3950000,7.0672e-11,
-3850000,7.0232e-11,
-3750000,6.5051e-11,
-3650000,6.243e-11,
-3550000,6.1576e-11,
-3450000,6.4768e-11,
-3350000,7.5741e-11,
-3250000,9.6992e-11,
-3150000,1.3137e-10,
-3050000,1.6521e-10,
-2950000,1.8398e-10,
-2850000,1.8898e-10,
-2750000,1.7229e-10,
-2650000,1.3911e-10,
-2550000,1.0703e-10,
-2450000,8.927e-11,
-2350000,8.3829e-11,
-2250000,9.3883e-11,
-2150000,1.1783e-10,
-2050000,1.4661e-10,
-1950000,1.5926e-10,
-1850000,1.5688e-10,
-1750000,1.4235e-10,
-1650000,1.1822e-10,
-1550000,1.0402e-10,
-1450000,1.0822e-10,
-1350000,1.274e-10,
-1250000,1.643e-10,
-1150000,2.4202e-10,
-1050000,2.7925e-10,
-950000,2.9115e-10,
-850000,2.3158e-10,
-750000,1.5138e-10,
-650000,1.0386e-10,
-550000,8.4296e-11,
-450000,8.2284e-11,
-350000,8.8121e-11,
-250000,1.0223e-10,
-150000,1.2718e-10,
-50000,1.4918e-10,
50000,1.7189e-10,
150000,1.9859e-10,
