General parameters:
Start time: 2023              9             19             13             40      19.095687
Finish time: 2023              9             19             13             49      21.412539
Dwell time (ms): 3750.000000
Source chamber pressure: Error-S
Differential chamber pressure: 8.18e-07
Sample chamber pressure: 3.58e-08
Example position (nm): -4587000.000000,253000.000000,-2700000.000000
Rotation angle (udeg): 125000115.000000
==========
Instrument status: 
0:Data Directory:/icon/data/2023_08_MoS2_5um_hbn_sub/
1:Sample:MoS2
2:Comments:no
3:PinholePlate:#C13
4:z_Zero:4200
5:Operator:djw77/nav31/kw570
==========
zscan inputs: 
z_sep:50000
z_range:500000 -6000000
data_path:/icon/data/2023_08_MoS2_5um_hbn_sub/
example_pos:-4587000   253000 -2700000
N_dwell:250
sampling_period:15
make_plots:1
m1:0.98976
m2:-0.0073571
==========
Detector params:
Sampling period (ms): 15.000000
N dwell: 250.000000
Filament current (A): 1.540000
Filament emission (mA): 3.193254
Solenoid current (A): NaN
Solenoid shim current (A): NaN
Lens params:
0  685
1  300
2  125
3      -0.002
4       -0.01
5       0.012
6         0.8
7         2.1
8         2.8
9  3000
10  1450
11         0.85
12   0
==========
Data:
z(nm),I(A)
500000,2.5915e-10,
400000,2.7115e-10,
300000,2.911e-10,
200000,3.0276e-10,
100000,3.0348e-10,
0,2.9891e-10,
-100000,2.8031e-10,
-200000,2.8189e-10,
-300000,2.8647e-10,
-400000,2.8963e-10,
-500000,3.0577e-10,
-600000,3.5328e-10,
-700000,4.3285e-10,
-800000,5.4336e-10,
-900000,5.6968e-10,
-1000000,4.6524e-10,
-1100000,3.5979e-10,
-1200000,2.9795e-10,
-1300000,2.7953e-10,
-1400000,2.8195e-10,
-1500000,3.2539e-10,
-1600000,4.0253e-10,
-1700000,4.6964e-10,
-1800000,4.6798e-10,
-1900000,4.1309e-10,
-2000000,3.3409e-10,
-2100000,2.7788e-10,
-2200000,2.6666e-10,
-2300000,2.9954e-10,
-2400000,3.7927e-10,
-2500000,4.9574e-10,
-2600000,5.9894e-10,
-2700000,6.4211e-10,
-2800000,6.1182e-10,
-2900000,5.1595e-10,
-3000000,3.9602e-10,
-3100000,3.0763e-10,
-3200000,2.6254e-10,
-3300000,2.5226e-10,
-3400000,2.614e-10,
-3500000,2.8989e-10,
-3600000,3.2321e-10,
-3700000,3.5077e-10,
-3800000,3.6109e-10,
-3900000,3.4371e-10,
-4000000,3.1514e-10,
-4100000,2.6846e-10,
-4200000,2.2758e-10,
-4300000,1.9445e-10,
-4400000,1.7585e-10,
-4500000,1.6232e-10,
-4600000,1.5769e-10,
-4700000,1.5514e-10,
-4800000,1.5253e-10,
-4900000,1.523e-10,
-5000000,1.5269e-10,
-5100000,1.537e-10,
-5200000,1.5347e-10,
-5300000,1.5231e-10,
-5400000,1.5269e-10,
-5500000,1.3858e-10,
-5600000,1.3308e-10,
-5700000,1.337e-10,
-5800000,1.3286e-10,
-5900000,1.2551e-10,
-6000000,1.2352e-10,
-5950000,1.247e-10,
-5850000,1.2895e-10,
-5750000,1.3487e-10,
-5650000,1.3372e-10,
-5550000,1.3329e-10,
-5450000,1.4685e-10,
-5350000,1.535e-10,
-5250000,1.5488e-10,
-5150000,1.5507e-10,
-5050000,1.5424e-10,
-4950000,1.5343e-10,
-4850000,1.5335e-10,
-4750000,1.5414e-10,
-4650000,1.5472e-10,
-4550000,1.5776e-10,
-4450000,1.6889e-10,
-4350000,1.8152e-10,
-4250000,2.0814e-10,
-4150000,2.4328e-10,
-4050000,2.8928e-10,
-3950000,3.2982e-10,
-3850000,3.4979e-10,
-3750000,3.5527e-10,
-3650000,3.4172e-10,
-3550000,3.0932e-10,
-3450000,2.7896e-10,
-3350000,2.5758e-10,
-3250000,2.5406e-10,
-3150000,2.7509e-10,
-3050000,3.3749e-10,
-2950000,4.486e-10,
-2850000,5.6775e-10,
-2750000,6.3812e-10,
-2650000,6.3782e-10,
-2550000,5.6317e-10,
-2450000,4.4569e-10,
-2350000,3.4043e-10,
-2250000,2.8569e-10,
-2150000,2.7286e-10,
-2050000,2.985e-10,
-1950000,3.6452e-10,
-1850000,4.2258e-10,
-1750000,4.6064e-10,
-1650000,4.3282e-10,
-1550000,3.6312e-10,
-1450000,3.0879e-10,
-1350000,2.8673e-10,
-1250000,2.9443e-10,
-1150000,3.2572e-10,
-1050000,3.9854e-10,
-950000,5.1713e-10,
-850000,5.7232e-10,
-750000,4.9304e-10,
-650000,3.9091e-10,
-550000,3.3349e-10,
-450000,2.9436e-10,
-350000,2.866e-10,
-250000,3.0235e-10,
-150000,2.9705e-10,
-50000,3.0282e-10,
50000,3.0405e-10,
150000,3.0243e-10,
250000,2.9458e-10,
350000,2.8018e-10,
450000,2.6071e-10,
