General parameters:
Start time: 2023              8             22             14             24      38.192545
Finish time: 2023              8             22             14             30       32.99007
Dwell time (ms): 3000.000000
Source chamber pressure: 2.00e+3
Differential chamber pressure: 7.97e-07
Sample chamber pressure: 3.79e-08
Example position (nm): -2867153.831151,110241.564748,-1000000.000000
Rotation angle (udeg): 132499985.000000
==========
Instrument status: 
0:Data Directory:/icon/data/2023_08_MoS2_5um_hbn_sub/
1:Sample:MoS2
2:Comments:no
3:PinholePlate:#C13
4:z_Zero:4200
5:Operator:djw77/nav31/kw570
==========
zscan inputs: 
z_sep:50000
z_range:200000 -5000000
data_path:/icon/data/2023_08_MoS2_5um_hbn_sub/
example_pos:-2867153.8312      110241.56475          -1000000
N_dwell:200
sampling_period:15
make_plots:0
m1:0.98976
m2:-0.0073571
==========
Detector params:
Sampling period (ms): 15.000000
N dwell: 200.000000
Filament current (A): 1.540000
Filament emission (mA): 1.733598
Solenoid current (A): NaN
Solenoid shim current (A): NaN
Lens params:
0  685
1  300
2  125
3      -0.002
4       -0.01
5       0.012
6         0.8
7         2.1
8         2.8
9  3000
10  1450
11         0.85
12   0
==========
Data:
z(nm),I(A)
200000,4.6477e-11,
100000,4.7765e-11,
0,4.8153e-11,
-100000,4.738e-11,
-200000,4.8473e-11,
-300000,4.6863e-11,
-400000,4.7445e-11,
-500000,4.7293e-11,
-600000,4.7426e-11,
-700000,4.8219e-11,
-800000,4.8912e-11,
-900000,4.8524e-11,
-1000000,4.9225e-11,
-1100000,4.8743e-11,
-1200000,4.9666e-11,
-1300000,4.9246e-11,
-1400000,4.9905e-11,
-1500000,4.9863e-11,
-1600000,4.8489e-11,
-1700000,5.0336e-11,
-1800000,4.9197e-11,
-1900000,4.9207e-11,
-2000000,4.8812e-11,
-2100000,4.8796e-11,
-2200000,4.8841e-11,
-2300000,4.8494e-11,
-2400000,4.7615e-11,
-2500000,4.6857e-11,
-2600000,4.7209e-11,
-2700000,4.5762e-11,
-2800000,4.5582e-11,
-2900000,4.4131e-11,
-3000000,4.3919e-11,
-3100000,4.3592e-11,
-3200000,4.3104e-11,
-3300000,4.2369e-11,
-3400000,4.1944e-11,
-3500000,4.0944e-11,
-3600000,4.0266e-11,
-3700000,3.9024e-11,
-3800000,3.8952e-11,
-3900000,3.8168e-11,
-4000000,3.7101e-11,
-4100000,3.6496e-11,
-4200000,3.6333e-11,
-4300000,3.4084e-11,
-4400000,3.4462e-11,
-4500000,3.4185e-11,
-4600000,3.3571e-11,
-4700000,3.2835e-11,
-4800000,3.2479e-11,
-4900000,3.137e-11,
-5000000,3.0981e-11,
-4950000,3.1707e-11,
-4850000,3.2856e-11,
-4750000,3.2661e-11,
-4650000,3.3438e-11,
-4550000,3.3897e-11,
-4450000,3.4748e-11,
-4350000,3.3868e-11,
-4250000,3.4875e-11,
-4150000,3.6044e-11,
-4050000,3.7244e-11,
-3950000,3.7833e-11,
-3850000,3.7569e-11,
-3750000,3.9159e-11,
-3650000,3.9862e-11,
-3550000,4.0743e-11,
-3450000,4.1269e-11,
-3350000,4.2046e-11,
-3250000,4.2549e-11,
-3150000,4.2729e-11,
-3050000,4.3176e-11,
-2950000,4.4891e-11,
-2850000,4.5817e-11,
-2750000,4.559e-11,
-2650000,4.6905e-11,
-2550000,4.6087e-11,
-2450000,4.618e-11,
-2350000,4.679e-11,
-2250000,4.8164e-11,
-2150000,4.8724e-11,
-2050000,4.8799e-11,
-1950000,4.8551e-11,
-1850000,4.8464e-11,
-1750000,4.8902e-11,
-1650000,4.9762e-11,
-1550000,4.9533e-11,
-1450000,5.0211e-11,
-1350000,5.0024e-11,
-1250000,4.815e-11,
-1150000,4.9968e-11,
-1050000,4.9114e-11,
-950000,4.9628e-11,
-850000,4.9795e-11,
-750000,4.9141e-11,
-650000,4.737e-11,
-550000,4.8882e-11,
-450000,4.8586e-11,
-350000,4.8711e-11,
-250000,4.8124e-11,
-150000,4.7316e-11,
-50000,4.7057e-11,
50000,4.7258e-11,
150000,4.6608e-11,
