General parameters:
Start time: 2023              8             23             12             53      14.891929
Finish time: 2023              8             23             12             59      12.603908
Dwell time (ms): 3000.000000
Source chamber pressure: 2.00e+3
Differential chamber pressure: 7.72e-07
Sample chamber pressure: 3.84e-08
Example position (nm): -3749617.975603,220392.341476,-1000000.000000
Rotation angle (udeg): 69999865.000000
==========
Instrument status: 
0:Data Directory:/icon/data/2023_08_MoS2_5um_hbn_sub/
1:Sample:MoS2
2:Comments:no
3:PinholePlate:#C13
4:z_Zero:4200
5:Operator:djw77/nav31/kw570
==========
zscan inputs: 
z_sep:50000
z_range:200000 -5000000
data_path:/icon/data/2023_08_MoS2_5um_hbn_sub/
example_pos:-3749617.9756      220392.34148          -1000000
N_dwell:200
sampling_period:15
make_plots:1
m1:0.98976
m2:-0.0073571
==========
Detector params:
Sampling period (ms): 15.000000
N dwell: 200.000000
Filament current (A): 1.540000
Filament emission (mA): 1.774638
Solenoid current (A): NaN
Solenoid shim current (A): NaN
Lens params:
0  685
1  300
2  125
3      -0.002
4       -0.01
5       0.012
6         0.8
7         2.1
8         2.8
9  3000
10  1450
11         0.85
12   0
==========
Data:
z(nm),I(A)
200000,3.611e-11,
100000,3.4521e-11,
0,3.4968e-11,
-100000,3.4433e-11,
-200000,3.4986e-11,
-300000,3.5513e-11,
-400000,3.6327e-11,
-500000,3.6778e-11,
-600000,3.6861e-11,
-700000,3.7297e-11,
-800000,3.7626e-11,
-900000,3.8341e-11,
-1000000,3.8855e-11,
-1100000,3.8369e-11,
-1200000,3.913e-11,
-1300000,3.9827e-11,
-1400000,4.0623e-11,
-1500000,4.0511e-11,
-1600000,3.9326e-11,
-1700000,3.9404e-11,
-1800000,4.0232e-11,
-1900000,4.1255e-11,
-2000000,4.024e-11,
-2100000,4.0171e-11,
-2200000,3.9807e-11,
-2300000,3.9249e-11,
-2400000,3.8776e-11,
-2500000,3.9317e-11,
-2600000,3.8683e-11,
-2700000,3.8149e-11,
-2800000,3.7664e-11,
-2900000,3.6386e-11,
-3000000,3.6722e-11,
-3100000,3.5294e-11,
-3200000,3.6638e-11,
-3300000,3.5397e-11,
-3400000,3.4598e-11,
-3500000,3.3394e-11,
-3600000,3.2694e-11,
-3700000,3.1858e-11,
-3800000,3.1365e-11,
-3900000,3.0672e-11,
-4000000,3.2217e-11,
-4100000,3.0051e-11,
-4200000,2.9327e-11,
-4300000,2.8877e-11,
-4400000,2.8598e-11,
-4500000,2.7858e-11,
-4600000,2.7769e-11,
-4700000,2.699e-11,
-4800000,2.6216e-11,
-4900000,2.5898e-11,
-5000000,2.5373e-11,
-4950000,2.544e-11,
-4850000,2.5867e-11,
-4750000,2.6191e-11,
-4650000,2.7551e-11,
-4550000,2.7086e-11,
-4450000,2.784e-11,
-4350000,2.8461e-11,
-4250000,2.9381e-11,
-4150000,2.9756e-11,
-4050000,3.05e-11,
-3950000,3.0182e-11,
-3850000,3.1234e-11,
-3750000,3.151e-11,
-3650000,3.3381e-11,
-3550000,3.3153e-11,
-3450000,3.4137e-11,
-3350000,3.5361e-11,
-3250000,3.4685e-11,
-3150000,3.6233e-11,
-3050000,3.5921e-11,
-2950000,3.5837e-11,
-2850000,3.7838e-11,
-2750000,3.7343e-11,
-2650000,3.894e-11,
-2550000,3.7863e-11,
-2450000,3.898e-11,
-2350000,4.0226e-11,
-2250000,3.9456e-11,
-2150000,4.0656e-11,
-2050000,3.9997e-11,
-1950000,4.0536e-11,
-1850000,4.0418e-11,
-1750000,4.0741e-11,
-1650000,4.0949e-11,
-1550000,4.124e-11,
-1450000,4.0449e-11,
-1350000,3.9148e-11,
-1250000,3.9488e-11,
-1150000,3.9529e-11,
-1050000,3.8619e-11,
-950000,3.8359e-11,
-850000,3.755e-11,
-750000,3.8469e-11,
-650000,3.7138e-11,
-550000,3.6997e-11,
-450000,3.6891e-11,
-350000,3.5542e-11,
-250000,3.4816e-11,
-150000,3.4709e-11,
-50000,3.4504e-11,
50000,3.4858e-11,
150000,3.5816e-11,
