General parameters:
Start time: 2023              8             28              2             39       16.98872
Finish time: 2023              8             28              2             45      14.270471
Dwell time (ms): 3000.000000
Source chamber pressure: 2.00e+3
Differential chamber pressure: 6.34e-07
Sample chamber pressure: 3.62e-08
Example position (nm): -3853361.054185,157629.967087,-1000000.000000
Rotation angle (udeg): 65000430.000000
==========
Instrument status: 
0:Data Directory:/icon/data/2023_08_MoS2_5um_hbn_sub/
1:Sample:MoS2
2:Comments:no
3:PinholePlate:#C13
4:z_Zero:4200
5:Operator:djw77/nav31/kw570
==========
zscan inputs: 
z_sep:50000
z_range:200000 -5000000
data_path:/icon/data/2023_08_MoS2_5um_hbn_sub/
example_pos:-3853361.0542      157629.96709          -1000000
N_dwell:200
sampling_period:15
make_plots:1
m1:0.98976
m2:-0.0073571
==========
Detector params:
Sampling period (ms): 15.000000
N dwell: 200.000000
Filament current (A): 1.540000
Filament emission (mA): 1.899810
Solenoid current (A): NaN
Solenoid shim current (A): NaN
Lens params:
0  685
1  300
2  125
3      -0.002
4       -0.01
5       0.012
6         0.8
7         2.1
8         2.8
9  3000
10  1450
11         0.85
12   0
==========
Data:
z(nm),I(A)
200000,1.3646e-10,
100000,1.2972e-10,
0,1.1546e-10,
-100000,9.716e-11,
-200000,8.3791e-11,
-300000,7.1946e-11,
-400000,6.3341e-11,
-500000,6.054e-11,
-600000,6.8129e-11,
-700000,9.0889e-11,
-800000,1.3068e-10,
-900000,1.81e-10,
-1000000,2.1521e-10,
-1100000,2.0465e-10,
-1200000,1.5972e-10,
-1300000,1.1834e-10,
-1400000,9.1615e-11,
-1500000,8.1756e-11,
-1600000,8.5066e-11,
-1700000,1.0117e-10,
-1800000,1.2374e-10,
-1900000,1.3286e-10,
-2000000,1.2697e-10,
-2100000,1.0798e-10,
-2200000,8.5648e-11,
-2300000,6.8978e-11,
-2400000,6.6476e-11,
-2500000,7.4941e-11,
-2600000,9.4258e-11,
-2700000,1.2155e-10,
-2800000,1.4178e-10,
-2900000,1.5109e-10,
-3000000,1.4235e-10,
-3100000,1.1936e-10,
-3200000,8.9606e-11,
-3300000,6.6505e-11,
-3400000,5.4163e-11,
-3500000,4.9598e-11,
-3600000,4.7884e-11,
-3700000,4.8304e-11,
-3800000,5.2691e-11,
-3900000,5.1614e-11,
-4000000,5.1683e-11,
-4100000,5.0852e-11,
-4200000,4.8336e-11,
-4300000,4.4215e-11,
-4400000,4.0482e-11,
-4500000,3.4972e-11,
-4600000,3.3768e-11,
-4700000,3.0329e-11,
-4800000,2.8899e-11,
-4900000,2.8521e-11,
-5000000,2.7332e-11,
-4950000,2.7513e-11,
-4850000,2.7827e-11,
-4750000,2.9528e-11,
-4650000,3.1137e-11,
-4550000,3.4837e-11,
-4450000,3.7247e-11,
-4350000,4.1604e-11,
-4250000,4.5548e-11,
-4150000,5.1165e-11,
-4050000,5.2258e-11,
-3950000,5.2451e-11,
-3850000,5.1596e-11,
-3750000,4.9941e-11,
-3650000,4.9147e-11,
-3550000,4.8543e-11,
-3450000,4.976e-11,
-3350000,5.8248e-11,
-3250000,7.5489e-11,
-3150000,1.0197e-10,
-3050000,1.3146e-10,
-2950000,1.4987e-10,
-2850000,1.5501e-10,
-2750000,1.3786e-10,
-2650000,1.1092e-10,
-2550000,8.5137e-11,
-2450000,6.9799e-11,
-2350000,6.6883e-11,
-2250000,7.3284e-11,
-2150000,9.5929e-11,
-2050000,1.1757e-10,
-1950000,1.3135e-10,
-1850000,1.3222e-10,
-1750000,1.1552e-10,
-1650000,9.5812e-11,
-1550000,8.2166e-11,
-1450000,8.2811e-11,
-1350000,9.8581e-11,
-1250000,1.3056e-10,
-1150000,1.8309e-10,
-1050000,2.1074e-10,
-950000,2.0065e-10,
-850000,1.6402e-10,
-750000,1.1457e-10,
-650000,7.8517e-11,
-550000,6.447e-11,
-450000,6.0529e-11,
-350000,6.4473e-11,
-250000,7.5339e-11,
-150000,8.6748e-11,
-50000,1.0315e-10,
50000,1.2038e-10,
150000,1.3603e-10,
