General parameters:
Start time: 2023              8             22              3             46      31.709877
Finish time: 2023              8             22              3             52      26.277255
Dwell time (ms): 3000.000000
Source chamber pressure: 2.00e+3
Differential chamber pressure: 7.99e-07
Sample chamber pressure: 3.75e-08
Example position (nm): -2835664.235864,161193.577751,-1000000.000000
Rotation angle (udeg): 134999965.000000
==========
Instrument status: 
0:Data Directory:/icon/data/2023_08_MoS2_5um_hbn_sub/
1:Sample:MoS2
2:Comments:no
3:PinholePlate:#C13
4:z_Zero:4200
5:Operator:djw77/nav31/kw570
==========
zscan inputs: 
z_sep:50000
z_range:200000 -5000000
data_path:/icon/data/2023_08_MoS2_5um_hbn_sub/
example_pos:-2835664.2359      161193.57775          -1000000
N_dwell:200
sampling_period:15
make_plots:0
m1:0.98976
m2:-0.0073571
==========
Detector params:
Sampling period (ms): 15.000000
N dwell: 200.000000
Filament current (A): 1.540000
Filament emission (mA): 1.754460
Solenoid current (A): NaN
Solenoid shim current (A): NaN
Lens params:
0  685
1  300
2  125
3      -0.002
4       -0.01
5       0.012
6         0.8
7         2.1
8         2.8
9  3000
10  1450
11         0.85
12   0
==========
Data:
z(nm),I(A)
200000,4.2543e-11,
100000,4.3614e-11,
0,4.307e-11,
-100000,4.3899e-11,
-200000,4.4345e-11,
-300000,4.386e-11,
-400000,4.4826e-11,
-500000,4.5132e-11,
-600000,4.4269e-11,
-700000,4.5525e-11,
-800000,4.5213e-11,
-900000,4.5472e-11,
-1000000,4.5147e-11,
-1100000,4.4775e-11,
-1200000,4.5803e-11,
-1300000,4.561e-11,
-1400000,4.4893e-11,
-1500000,4.5134e-11,
-1600000,4.6219e-11,
-1700000,4.5784e-11,
-1800000,4.5792e-11,
-1900000,4.4935e-11,
-2000000,4.5334e-11,
-2100000,4.4838e-11,
-2200000,4.4432e-11,
-2300000,4.3945e-11,
-2400000,4.4447e-11,
-2500000,4.3344e-11,
-2600000,4.3054e-11,
-2700000,4.2322e-11,
-2800000,4.1823e-11,
-2900000,4.1541e-11,
-3000000,4.0846e-11,
-3100000,3.9656e-11,
-3200000,3.8349e-11,
-3300000,3.8893e-11,
-3400000,3.7535e-11,
-3500000,3.7363e-11,
-3600000,3.7595e-11,
-3700000,3.575e-11,
-3800000,3.5154e-11,
-3900000,3.5357e-11,
-4000000,3.3557e-11,
-4100000,3.3941e-11,
-4200000,3.2655e-11,
-4300000,3.1589e-11,
-4400000,3.1428e-11,
-4500000,3.1028e-11,
-4600000,3.0541e-11,
-4700000,3.0649e-11,
-4800000,2.9661e-11,
-4900000,2.8874e-11,
-5000000,2.9051e-11,
-4950000,2.9022e-11,
-4850000,2.903e-11,
-4750000,2.9569e-11,
-4650000,3.1109e-11,
-4550000,3.0909e-11,
-4450000,3.1833e-11,
-4350000,3.2248e-11,
-4250000,3.2812e-11,
-4150000,3.3592e-11,
-4050000,3.3335e-11,
-3950000,3.5071e-11,
-3850000,3.5477e-11,
-3750000,3.6312e-11,
-3650000,3.572e-11,
-3550000,3.6952e-11,
-3450000,3.9002e-11,
-3350000,3.8194e-11,
-3250000,3.8742e-11,
-3150000,3.9425e-11,
-3050000,4.0187e-11,
-2950000,4.0975e-11,
-2850000,4.142e-11,
-2750000,4.2401e-11,
-2650000,4.1597e-11,
-2550000,4.2649e-11,
-2450000,4.3455e-11,
-2350000,4.4541e-11,
-2250000,4.4097e-11,
-2150000,4.4923e-11,
-2050000,4.4929e-11,
-1950000,4.4948e-11,
-1850000,4.5054e-11,
-1750000,4.5481e-11,
-1650000,4.5215e-11,
-1550000,4.5978e-11,
-1450000,4.5866e-11,
-1350000,4.5339e-11,
-1250000,4.4235e-11,
-1150000,4.5431e-11,
-1050000,4.4502e-11,
-950000,4.4728e-11,
-850000,4.5219e-11,
-750000,4.5041e-11,
-650000,4.4717e-11,
-550000,4.4627e-11,
-450000,4.3607e-11,
-350000,4.4554e-11,
-250000,4.288e-11,
-150000,4.3069e-11,
-50000,4.3258e-11,
50000,4.3799e-11,
150000,4.3858e-11,
