General parameters:
Start time: 2023              8             18             18             56      54.871171
Finish time: 2023              8             18             19              2      53.687451
Dwell time (ms): 3000.000000
Source chamber pressure: 2.00e+3
Differential chamber pressure: 7.95e-07
Sample chamber pressure: 3.84e-08
Example position (nm): -3366106.290489,289763.025890,-1000000.000000
Rotation angle (udeg): 95000065.000000
==========
Instrument status: 
0:Data Directory:/icon/data/2023_08_MoS2_5um_hbn_sub/
1:Sample:MoS2
2:Comments:no
3:PinholePlate:#C13
4:z_Zero:4200
5:Operator:djw77/nav31/kw570
==========
zscan inputs: 
z_sep:50000
z_range:200000 -5000000
data_path:/icon/data/2023_08_MoS2_5um_hbn_sub/
example_pos:-3366106.2905      289763.02589          -1000000
N_dwell:200
sampling_period:15
make_plots:0
m1:0.98976
m2:-0.0073571
==========
Detector params:
Sampling period (ms): 15.000000
N dwell: 200.000000
Filament current (A): 1.540000
Filament emission (mA): 1.665882
Solenoid current (A): NaN
Solenoid shim current (A): NaN
Lens params:
0  685
1  300
2  125
3      -0.002
4       -0.01
5       0.012
6         0.8
7         2.1
8         2.8
9  3000
10  1450
11         0.85
12   0
==========
Data:
z(nm),I(A)
200000,3.925e-11,
100000,3.9615e-11,
0,3.9528e-11,
-100000,3.8578e-11,
-200000,3.9064e-11,
-300000,3.9311e-11,
-400000,3.945e-11,
-500000,3.9369e-11,
-600000,4.0658e-11,
-700000,4.0946e-11,
-800000,4.069e-11,
-900000,4.188e-11,
-1000000,4.1623e-11,
-1100000,4.0867e-11,
-1200000,4.112e-11,
-1300000,4.1533e-11,
-1400000,4.1553e-11,
-1500000,4.2992e-11,
-1600000,4.1723e-11,
-1700000,4.1588e-11,
-1800000,4.2475e-11,
-1900000,4.1563e-11,
-2000000,4.1372e-11,
-2100000,4.132e-11,
-2200000,4.1995e-11,
-2300000,4.1116e-11,
-2400000,4.1265e-11,
-2500000,4.1666e-11,
-2600000,4.0712e-11,
-2700000,3.9445e-11,
-2800000,3.9034e-11,
-2900000,3.8893e-11,
-3000000,3.7029e-11,
-3100000,3.5387e-11,
-3200000,3.625e-11,
-3300000,3.5459e-11,
-3400000,3.5316e-11,
-3500000,3.4403e-11,
-3600000,3.3631e-11,
-3700000,3.2385e-11,
-3800000,3.2508e-11,
-3900000,3.244e-11,
-4000000,3.1242e-11,
-4100000,3.0885e-11,
-4200000,2.945e-11,
-4300000,2.9478e-11,
-4400000,2.959e-11,
-4500000,2.8814e-11,
-4600000,2.7911e-11,
-4700000,2.7677e-11,
-4800000,2.7233e-11,
-4900000,2.6276e-11,
-5000000,2.6296e-11,
-4950000,2.6617e-11,
-4850000,2.7036e-11,
-4750000,2.7843e-11,
-4650000,2.824e-11,
-4550000,2.785e-11,
-4450000,2.8305e-11,
-4350000,2.9624e-11,
-4250000,3.0107e-11,
-4150000,3.0538e-11,
-4050000,3.1106e-11,
-3950000,3.2127e-11,
-3850000,3.2389e-11,
-3750000,3.3082e-11,
-3650000,3.3887e-11,
-3550000,3.3609e-11,
-3450000,3.5084e-11,
-3350000,3.4657e-11,
-3250000,3.5849e-11,
-3150000,3.7034e-11,
-3050000,3.7444e-11,
-2950000,3.7512e-11,
-2850000,3.7949e-11,
-2750000,3.9956e-11,
-2650000,3.9894e-11,
-2550000,4.0799e-11,
-2450000,4.0543e-11,
-2350000,4.0455e-11,
-2250000,4.0693e-11,
-2150000,4.1768e-11,
-2050000,4.1077e-11,
-1950000,4.3071e-11,
-1850000,4.1927e-11,
-1750000,4.2474e-11,
-1650000,4.1997e-11,
-1550000,4.265e-11,
-1450000,4.2448e-11,
-1350000,4.2985e-11,
-1250000,4.2188e-11,
-1150000,4.1191e-11,
-1050000,4.0663e-11,
-950000,4.1633e-11,
-850000,4.0888e-11,
-750000,3.9888e-11,
-650000,3.9003e-11,
-550000,3.96e-11,
-450000,3.8998e-11,
-350000,3.8728e-11,
-250000,3.8825e-11,
-150000,3.9387e-11,
-50000,3.9072e-11,
50000,3.8715e-11,
150000,3.9881e-11,
