General parameters:
Start time: 2023              8             22             12             18      36.268663
Finish time: 2023              8             22             12             24       31.46811
Dwell time (ms): 3000.000000
Source chamber pressure: 2.00e+3
Differential chamber pressure: 7.97e-07
Sample chamber pressure: 3.84e-08
Example position (nm): -3555373.891690,235930.662450,-1000000.000000
Rotation angle (udeg): 79999810.000000
==========
Instrument status: 
0:Data Directory:/icon/data/2023_08_MoS2_5um_hbn_sub/
1:Sample:MoS2
2:Comments:no
3:PinholePlate:#C13
4:z_Zero:4200
5:Operator:djw77/nav31/kw570
==========
zscan inputs: 
z_sep:50000
z_range:200000 -5000000
data_path:/icon/data/2023_08_MoS2_5um_hbn_sub/
example_pos:-3555373.8917      235930.66245          -1000000
N_dwell:200
sampling_period:15
make_plots:0
m1:0.98976
m2:-0.0073571
==========
Detector params:
Sampling period (ms): 15.000000
N dwell: 200.000000
Filament current (A): 1.540000
Filament emission (mA): 1.740438
Solenoid current (A): NaN
Solenoid shim current (A): NaN
Lens params:
0  685
1  300
2  125
3      -0.002
4       -0.01
5       0.012
6         0.8
7         2.1
8         2.8
9  3000
10  1450
11         0.85
12   0
==========
Data:
z(nm),I(A)
200000,4.28e-11,
100000,4.2989e-11,
0,4.2378e-11,
-100000,4.3406e-11,
-200000,4.3524e-11,
-300000,4.3471e-11,
-400000,4.246e-11,
-500000,4.4954e-11,
-600000,4.5138e-11,
-700000,4.4485e-11,
-800000,4.5316e-11,
-900000,4.7398e-11,
-1000000,4.793e-11,
-1100000,4.7149e-11,
-1200000,4.6564e-11,
-1300000,4.7326e-11,
-1400000,4.8081e-11,
-1500000,4.7847e-11,
-1600000,4.8528e-11,
-1700000,4.8058e-11,
-1800000,4.722e-11,
-1900000,4.7764e-11,
-2000000,4.8447e-11,
-2100000,4.7137e-11,
-2200000,4.7228e-11,
-2300000,4.6869e-11,
-2400000,4.6893e-11,
-2500000,4.5822e-11,
-2600000,4.6157e-11,
-2700000,4.4735e-11,
-2800000,4.628e-11,
-2900000,4.3691e-11,
-3000000,4.3055e-11,
-3100000,4.2234e-11,
-3200000,4.2761e-11,
-3300000,4.1166e-11,
-3400000,4.2795e-11,
-3500000,4.1082e-11,
-3600000,3.9898e-11,
-3700000,3.8676e-11,
-3800000,3.8009e-11,
-3900000,3.8614e-11,
-4000000,3.5202e-11,
-4100000,3.5048e-11,
-4200000,3.4123e-11,
-4300000,3.2408e-11,
-4400000,3.2674e-11,
-4500000,3.2163e-11,
-4600000,3.1695e-11,
-4700000,3.1259e-11,
-4800000,3.0938e-11,
-4900000,3.0975e-11,
-5000000,2.9426e-11,
-4950000,3.0565e-11,
-4850000,3.0453e-11,
-4750000,3.0714e-11,
-4650000,3.1581e-11,
-4550000,3.1967e-11,
-4450000,3.206e-11,
-4350000,3.3149e-11,
-4250000,3.4413e-11,
-4150000,3.4401e-11,
-4050000,3.5143e-11,
-3950000,3.6053e-11,
-3850000,3.8127e-11,
-3750000,3.7886e-11,
-3650000,3.9892e-11,
-3550000,4.0329e-11,
-3450000,4.2178e-11,
-3350000,4.2335e-11,
-3250000,4.3036e-11,
-3150000,4.2108e-11,
-3050000,4.3229e-11,
-2950000,4.4698e-11,
-2850000,4.4908e-11,
-2750000,4.5819e-11,
-2650000,4.524e-11,
-2550000,4.6015e-11,
-2450000,4.7012e-11,
-2350000,4.7331e-11,
-2250000,4.599e-11,
-2150000,4.797e-11,
-2050000,4.8605e-11,
-1950000,4.7835e-11,
-1850000,4.8709e-11,
-1750000,4.7767e-11,
-1650000,4.7805e-11,
-1550000,4.7183e-11,
-1450000,4.8659e-11,
-1350000,4.7221e-11,
-1250000,4.7217e-11,
-1150000,4.6856e-11,
-1050000,4.8309e-11,
-950000,4.7671e-11,
-850000,4.7311e-11,
-750000,4.571e-11,
-650000,4.4607e-11,
-550000,4.4195e-11,
-450000,4.297e-11,
-350000,4.3704e-11,
-250000,4.237e-11,
-150000,4.1254e-11,
-50000,4.2838e-11,
50000,4.2587e-11,
150000,4.3749e-11,
