General parameters:
Start time: 2023              8             18             14             30      41.575416
Finish time: 2023              8             18             14             36      39.146987
Dwell time (ms): 3000.000000
Source chamber pressure: 2.00e+3
Differential chamber pressure: 7.88e-07
Sample chamber pressure: 3.84e-08
Example position (nm): -3064802.152889,285018.666126,-1000000.000000
Rotation angle (udeg): 114999825.000000
==========
Instrument status: 
0:Data Directory:/icon/data/2023_08_MoS2_5um_hbn_sub/
1:Sample:MoS2
2:Comments:no
3:PinholePlate:#C13
4:z_Zero:4200
5:Operator:djw77/nav31/kw570
==========
zscan inputs: 
z_sep:50000
z_range:200000 -5000000
data_path:/icon/data/2023_08_MoS2_5um_hbn_sub/
example_pos:-3064802.1529      285018.66613          -1000000
N_dwell:200
sampling_period:15
make_plots:1
m1:0.98976
m2:-0.0073571
==========
Detector params:
Sampling period (ms): 15.000000
N dwell: 200.000000
Filament current (A): 1.540000
Filament emission (mA): 1.663146
Solenoid current (A): NaN
Solenoid shim current (A): NaN
Lens params:
0  685
1  300
2  125
3      -0.002
4       -0.01
5       0.012
6         0.8
7         2.1
8         2.8
9  3000
10  1450
11         0.85
12   0
==========
Data:
z(nm),I(A)
200000,4.1773e-11,
100000,4.367e-11,
0,4.2928e-11,
-100000,4.3084e-11,
-200000,4.3801e-11,
-300000,4.3686e-11,
-400000,4.6308e-11,
-500000,4.8389e-11,
-600000,5.2464e-11,
-700000,6.2616e-11,
-800000,7.8129e-11,
-900000,8.9544e-11,
-1000000,8.2069e-11,
-1100000,6.6465e-11,
-1200000,5.651e-11,
-1300000,5.2487e-11,
-1400000,5.0862e-11,
-1500000,5.5192e-11,
-1600000,6.4132e-11,
-1700000,7.0237e-11,
-1800000,7.1362e-11,
-1900000,6.773e-11,
-2000000,5.7479e-11,
-2100000,4.9114e-11,
-2200000,4.5596e-11,
-2300000,4.5812e-11,
-2400000,4.9463e-11,
-2500000,5.33e-11,
-2600000,5.6346e-11,
-2700000,5.6897e-11,
-2800000,5.4398e-11,
-2900000,4.9599e-11,
-3000000,4.4517e-11,
-3100000,4.0796e-11,
-3200000,3.897e-11,
-3300000,3.8129e-11,
-3400000,3.6795e-11,
-3500000,3.6038e-11,
-3600000,3.5184e-11,
-3700000,3.4488e-11,
-3800000,3.2988e-11,
-3900000,3.2289e-11,
-4000000,3.11e-11,
-4100000,3.0395e-11,
-4200000,2.9428e-11,
-4300000,2.9765e-11,
-4400000,3.0241e-11,
-4500000,3.0115e-11,
-4600000,2.9163e-11,
-4700000,2.8145e-11,
-4800000,2.7315e-11,
-4900000,2.7522e-11,
-5000000,2.6513e-11,
-4950000,2.5778e-11,
-4850000,2.7595e-11,
-4750000,2.8216e-11,
-4650000,2.8381e-11,
-4550000,2.8782e-11,
-4450000,2.8808e-11,
-4350000,2.8848e-11,
-4250000,2.9049e-11,
-4150000,3.0623e-11,
-4050000,3.017e-11,
-3950000,3.0247e-11,
-3850000,3.215e-11,
-3750000,3.3999e-11,
-3650000,3.5224e-11,
-3550000,3.5926e-11,
-3450000,3.673e-11,
-3350000,3.6942e-11,
-3250000,3.8529e-11,
-3150000,4.0401e-11,
-3050000,4.2415e-11,
-2950000,4.6408e-11,
-2850000,5.1401e-11,
-2750000,5.7285e-11,
-2650000,5.8196e-11,
-2550000,5.6174e-11,
-2450000,5.1163e-11,
-2350000,4.6943e-11,
-2250000,4.4272e-11,
-2150000,4.5929e-11,
-2050000,5.2443e-11,
-1950000,6.2057e-11,
-1850000,6.9331e-11,
-1750000,7.1703e-11,
-1650000,6.7234e-11,
-1550000,5.9743e-11,
-1450000,5.244e-11,
-1350000,5.0609e-11,
-1250000,5.4269e-11,
-1150000,6.0248e-11,
-1050000,7.0099e-11,
-950000,8.6893e-11,
-850000,8.6618e-11,
-750000,6.9951e-11,
-650000,5.7669e-11,
-550000,5.11e-11,
-450000,4.5671e-11,
-350000,4.4678e-11,
-250000,4.392e-11,
-150000,4.4152e-11,
-50000,4.3054e-11,
50000,4.3845e-11,
150000,4.3833e-11,
