General parameters:
Start time: 2023              8             28              3              3      24.581405
Finish time: 2023              8             28              3              9        20.5767
Dwell time (ms): 3000.000000
Source chamber pressure: 2.00e+3
Differential chamber pressure: 6.34e-07
Sample chamber pressure: 3.62e-08
Example position (nm): -3708634.139019,241006.242887,-1000000.000000
Rotation angle (udeg): 75000045.000000
==========
Instrument status: 
0:Data Directory:/icon/data/2023_08_MoS2_5um_hbn_sub/
1:Sample:MoS2
2:Comments:no
3:PinholePlate:#C13
4:z_Zero:4200
5:Operator:djw77/nav31/kw570
==========
zscan inputs: 
z_sep:50000
z_range:200000 -5000000
data_path:/icon/data/2023_08_MoS2_5um_hbn_sub/
example_pos:-3708634.139      241006.24289          -1000000
N_dwell:200
sampling_period:15
make_plots:1
m1:0.98976
m2:-0.0073571
==========
Detector params:
Sampling period (ms): 15.000000
N dwell: 200.000000
Filament current (A): 1.540000
Filament emission (mA): 1.898784
Solenoid current (A): NaN
Solenoid shim current (A): NaN
Lens params:
0  685
1  300
2  125
3      -0.002
4       -0.01
5       0.012
6         0.8
7         2.1
8         2.8
9  3000
10  1450
11         0.85
12   0
==========
Data:
z(nm),I(A)
200000,1.7777e-10,
100000,1.576e-10,
0,1.3614e-10,
-100000,1.1676e-10,
-200000,9.3073e-11,
-300000,7.8205e-11,
-400000,6.6966e-11,
-500000,6.3731e-11,
-600000,6.9821e-11,
-700000,9.272e-11,
-800000,1.3034e-10,
-900000,1.8129e-10,
-1000000,2.1464e-10,
-1100000,2.0141e-10,
-1200000,1.545e-10,
-1300000,1.0851e-10,
-1400000,8.4883e-11,
-1500000,7.5242e-11,
-1600000,7.4076e-11,
-1700000,8.0051e-11,
-1800000,8.8239e-11,
-1900000,9.2252e-11,
-2000000,8.7447e-11,
-2100000,7.7124e-11,
-2200000,6.688e-11,
-2300000,5.9237e-11,
-2400000,5.7192e-11,
-2500000,5.9272e-11,
-2600000,6.3914e-11,
-2700000,6.6564e-11,
-2800000,7.2699e-11,
-2900000,7.4109e-11,
-3000000,7.0314e-11,
-3100000,6.3029e-11,
-3200000,5.7435e-11,
-3300000,5.0893e-11,
-3400000,4.8148e-11,
-3500000,4.4702e-11,
-3600000,4.3601e-11,
-3700000,4.2426e-11,
-3800000,4.0684e-11,
-3900000,3.8301e-11,
-4000000,3.7816e-11,
-4100000,3.6672e-11,
-4200000,3.542e-11,
-4300000,3.4062e-11,
-4400000,3.3389e-11,
-4500000,3.1413e-11,
-4600000,3.2089e-11,
-4700000,3.0056e-11,
-4800000,2.9605e-11,
-4900000,2.7817e-11,
-5000000,2.8417e-11,
-4950000,2.8885e-11,
-4850000,2.9153e-11,
-4750000,2.9325e-11,
-4650000,3.087e-11,
-4550000,3.1344e-11,
-4450000,3.2451e-11,
-4350000,3.3378e-11,
-4250000,3.3919e-11,
-4150000,3.5646e-11,
-4050000,3.6794e-11,
-3950000,3.8721e-11,
-3850000,3.9984e-11,
-3750000,4.1166e-11,
-3650000,4.1583e-11,
-3550000,4.4996e-11,
-3450000,4.6314e-11,
-3350000,5.0069e-11,
-3250000,5.3499e-11,
-3150000,5.8503e-11,
-3050000,6.6149e-11,
-2950000,7.1991e-11,
-2850000,7.3147e-11,
-2750000,7.1544e-11,
-2650000,6.6428e-11,
-2550000,6.0603e-11,
-2450000,5.8053e-11,
-2350000,5.7445e-11,
-2250000,6.0839e-11,
-2150000,7.1379e-11,
-2050000,8.3082e-11,
-1950000,9.2081e-11,
-1850000,9.3438e-11,
-1750000,8.5986e-11,
-1650000,7.803e-11,
-1550000,7.3283e-11,
-1450000,7.7034e-11,
-1350000,9.4677e-11,
-1250000,1.2563e-10,
-1150000,1.705e-10,
-1050000,2.1038e-10,
-950000,2.1568e-10,
-850000,1.7499e-10,
-750000,1.1812e-10,
-650000,8.1006e-11,
-550000,6.6901e-11,
-450000,6.4508e-11,
-350000,6.9944e-11,
-250000,8.3962e-11,
-150000,1.0096e-10,
-50000,1.2363e-10,
50000,1.4546e-10,
150000,1.6475e-10,
