General parameters:
Start time: 2023              8             22              1             33      49.092368
Finish time: 2023              8             22              1             39      47.202278
Dwell time (ms): 3000.000000
Source chamber pressure: 2.00e+3
Differential chamber pressure: 7.98e-07
Sample chamber pressure: 3.79e-08
Example position (nm): -3612021.665429,280775.168585,-1000000.000000
Rotation angle (udeg): 79999885.000000
==========
Instrument status: 
0:Data Directory:/icon/data/2023_08_MoS2_5um_hbn_sub/
1:Sample:MoS2
2:Comments:no
3:PinholePlate:#C13
4:z_Zero:4200
5:Operator:djw77/nav31/kw570
==========
zscan inputs: 
z_sep:50000
z_range:200000 -5000000
data_path:/icon/data/2023_08_MoS2_5um_hbn_sub/
example_pos:-3612021.6654      280775.16859          -1000000
N_dwell:200
sampling_period:15
make_plots:0
m1:0.98976
m2:-0.0073571
==========
Detector params:
Sampling period (ms): 15.000000
N dwell: 200.000000
Filament current (A): 1.540000
Filament emission (mA): 1.751040
Solenoid current (A): NaN
Solenoid shim current (A): NaN
Lens params:
0  685
1  300
2  125
3      -0.002
4       -0.01
5       0.012
6         0.8
7         2.1
8         2.8
9  3000
10  1450
11         0.85
12   0
==========
Data:
z(nm),I(A)
200000,4.0422e-11,
100000,4.0284e-11,
0,3.9278e-11,
-100000,4.085e-11,
-200000,4.0314e-11,
-300000,4.0633e-11,
-400000,4.1562e-11,
-500000,4.2057e-11,
-600000,4.2026e-11,
-700000,4.3422e-11,
-800000,4.3924e-11,
-900000,4.5154e-11,
-1000000,4.5482e-11,
-1100000,4.5111e-11,
-1200000,4.4777e-11,
-1300000,4.4469e-11,
-1400000,4.6452e-11,
-1500000,4.621e-11,
-1600000,4.6743e-11,
-1700000,4.662e-11,
-1800000,4.6476e-11,
-1900000,4.5178e-11,
-2000000,4.5905e-11,
-2100000,4.5503e-11,
-2200000,4.5059e-11,
-2300000,4.5742e-11,
-2400000,4.579e-11,
-2500000,4.4739e-11,
-2600000,4.4694e-11,
-2700000,4.3017e-11,
-2800000,4.3487e-11,
-2900000,4.2774e-11,
-3000000,4.2099e-11,
-3100000,4.1572e-11,
-3200000,4.0986e-11,
-3300000,4.0531e-11,
-3400000,3.9953e-11,
-3500000,3.8582e-11,
-3600000,3.7855e-11,
-3700000,3.7122e-11,
-3800000,3.7126e-11,
-3900000,3.5456e-11,
-4000000,3.5276e-11,
-4100000,3.4424e-11,
-4200000,3.4267e-11,
-4300000,3.2725e-11,
-4400000,3.1193e-11,
-4500000,3.1694e-11,
-4600000,3.0694e-11,
-4700000,2.9579e-11,
-4800000,2.9029e-11,
-4900000,2.8073e-11,
-5000000,2.7302e-11,
-4950000,2.8045e-11,
-4850000,2.9244e-11,
-4750000,2.99e-11,
-4650000,2.9923e-11,
-4550000,3.1216e-11,
-4450000,3.1262e-11,
-4350000,3.1617e-11,
-4250000,3.2583e-11,
-4150000,3.4083e-11,
-4050000,3.486e-11,
-3950000,3.4979e-11,
-3850000,3.6784e-11,
-3750000,3.6691e-11,
-3650000,3.7962e-11,
-3550000,3.9135e-11,
-3450000,4.0806e-11,
-3350000,4.3728e-11,
-3250000,4.219e-11,
-3150000,4.1964e-11,
-3050000,4.294e-11,
-2950000,4.3435e-11,
-2850000,4.4143e-11,
-2750000,4.5798e-11,
-2650000,4.5592e-11,
-2550000,4.6694e-11,
-2450000,4.6094e-11,
-2350000,4.6945e-11,
-2250000,4.6473e-11,
-2150000,4.7559e-11,
-2050000,4.6747e-11,
-1950000,4.7342e-11,
-1850000,4.7167e-11,
-1750000,4.6683e-11,
-1650000,4.6103e-11,
-1550000,4.6361e-11,
-1450000,4.6497e-11,
-1350000,4.6076e-11,
-1250000,4.6177e-11,
-1150000,4.5796e-11,
-1050000,4.5892e-11,
-950000,4.9244e-11,
-850000,4.7466e-11,
-750000,4.4454e-11,
-650000,4.2751e-11,
-550000,4.1621e-11,
-450000,4.1403e-11,
-350000,4.1287e-11,
-250000,4.0117e-11,
-150000,4.012e-11,
-50000,4.0039e-11,
50000,4.0621e-11,
150000,4.0195e-11,
