General parameters:
Start time: 2023              8             28              2             33      15.566896
Finish time: 2023              8             28              2             39      11.730352
Dwell time (ms): 3000.000000
Source chamber pressure: 2.00e+3
Differential chamber pressure: 6.35e-07
Sample chamber pressure: 3.62e-08
Example position (nm): -3887098.634062,132941.428863,-1000000.000000
Rotation angle (udeg): 62499990.000000
==========
Instrument status: 
0:Data Directory:/icon/data/2023_08_MoS2_5um_hbn_sub/
1:Sample:MoS2
2:Comments:no
3:PinholePlate:#C13
4:z_Zero:4200
5:Operator:djw77/nav31/kw570
==========
zscan inputs: 
z_sep:50000
z_range:200000 -5000000
data_path:/icon/data/2023_08_MoS2_5um_hbn_sub/
example_pos:-3887098.6341      132941.42886          -1000000
N_dwell:200
sampling_period:15
make_plots:1
m1:0.98976
m2:-0.0073571
==========
Detector params:
Sampling period (ms): 15.000000
N dwell: 200.000000
Filament current (A): 1.540000
Filament emission (mA): 1.901520
Solenoid current (A): NaN
Solenoid shim current (A): NaN
Lens params:
0  685
1  300
2  125
3      -0.002
4       -0.01
5       0.012
6         0.8
7         2.1
8         2.8
9  3000
10  1450
11         0.85
12   0
==========
Data:
z(nm),I(A)
200000,1.2536e-10,
100000,1.1627e-10,
0,1.0578e-10,
-100000,9.2142e-11,
-200000,8.0631e-11,
-300000,6.8983e-11,
-400000,6.3426e-11,
-500000,6.1745e-11,
-600000,6.9457e-11,
-700000,9.133e-11,
-800000,1.3635e-10,
-900000,1.9802e-10,
-1000000,2.2121e-10,
-1100000,2.0671e-10,
-1200000,1.6553e-10,
-1300000,1.1931e-10,
-1400000,9.5022e-11,
-1500000,8.5027e-11,
-1600000,8.7185e-11,
-1700000,1.019e-10,
-1800000,1.2037e-10,
-1900000,1.2884e-10,
-2000000,1.2153e-10,
-2100000,1.0376e-10,
-2200000,8.3431e-11,
-2300000,7.0785e-11,
-2400000,6.6837e-11,
-2500000,7.3073e-11,
-2600000,8.6184e-11,
-2700000,1.0506e-10,
-2800000,1.2009e-10,
-2900000,1.1988e-10,
-3000000,1.0935e-10,
-3100000,9.283e-11,
-3200000,7.6306e-11,
-3300000,6.3099e-11,
-3400000,5.3635e-11,
-3500000,4.9123e-11,
-3600000,4.8261e-11,
-3700000,4.6777e-11,
-3800000,4.6027e-11,
-3900000,4.5152e-11,
-4000000,4.4233e-11,
-4100000,4.1301e-11,
-4200000,3.9158e-11,
-4300000,3.7763e-11,
-4400000,3.5473e-11,
-4500000,3.3828e-11,
-4600000,3.1964e-11,
-4700000,3.1757e-11,
-4800000,2.9689e-11,
-4900000,2.8301e-11,
-5000000,2.7598e-11,
-4950000,2.8881e-11,
-4850000,2.826e-11,
-4750000,2.9601e-11,
-4650000,3.0863e-11,
-4550000,3.272e-11,
-4450000,3.3752e-11,
-4350000,3.6068e-11,
-4250000,3.8847e-11,
-4150000,4.0897e-11,
-4050000,4.3262e-11,
-3950000,4.4555e-11,
-3850000,4.5052e-11,
-3750000,4.4752e-11,
-3650000,4.5457e-11,
-3550000,4.7045e-11,
-3450000,5.1001e-11,
-3350000,5.6125e-11,
-3250000,6.7829e-11,
-3150000,8.4382e-11,
-3050000,1.0273e-10,
-2950000,1.1805e-10,
-2850000,1.2097e-10,
-2750000,1.1388e-10,
-2650000,9.6852e-11,
-2550000,7.988e-11,
-2450000,6.9652e-11,
-2350000,6.7383e-11,
-2250000,7.3212e-11,
-2150000,9.1633e-11,
-2050000,1.1257e-10,
-1950000,1.2828e-10,
-1850000,1.2593e-10,
-1750000,1.1305e-10,
-1650000,9.5143e-11,
-1550000,8.4658e-11,
-1450000,8.7307e-11,
-1350000,1.0172e-10,
-1250000,1.3617e-10,
-1150000,1.8785e-10,
-1050000,2.1918e-10,
-950000,2.1864e-10,
-850000,1.7742e-10,
-750000,1.1633e-10,
-650000,8.1377e-11,
-550000,6.4379e-11,
-450000,6.0301e-11,
-350000,6.6139e-11,
-250000,7.4254e-11,
-150000,8.3526e-11,
-50000,9.648e-11,
50000,1.0745e-10,
150000,1.2163e-10,
