General parameters:
Start time: 2023              8             21             15             48      43.654928
Finish time: 2023              8             21             15             54      40.168968
Dwell time (ms): 3000.000000
Source chamber pressure: 2.00e+3
Differential chamber pressure: 7.99e-07
Sample chamber pressure: 3.79e-08
Example position (nm): -3320511.078481,311545.982432,-1000000.000000
Rotation angle (udeg): 100000055.000000
==========
Instrument status: 
0:Data Directory:/icon/data/2023_08_MoS2_5um_hbn_sub/
1:Sample:MoS2
2:Comments:no
3:PinholePlate:#C13
4:z_Zero:4200
5:Operator:djw77/nav31/kw570
==========
zscan inputs: 
z_sep:50000
z_range:200000 -5000000
data_path:/icon/data/2023_08_MoS2_5um_hbn_sub/
example_pos:-3320511.0785      311545.98243          -1000000
N_dwell:200
sampling_period:15
make_plots:0
m1:0.98976
m2:-0.0073571
==========
Detector params:
Sampling period (ms): 15.000000
N dwell: 200.000000
Filament current (A): 1.540000
Filament emission (mA): 1.739412
Solenoid current (A): NaN
Solenoid shim current (A): NaN
Lens params:
0  685
1  300
2  125
3      -0.002
4       -0.01
5       0.012
6         0.8
7         2.1
8         2.8
9  3000
10  1450
11         0.85
12   0
==========
Data:
z(nm),I(A)
200000,4.8509e-11,
100000,4.9159e-11,
0,5.021e-11,
-100000,5.1054e-11,
-200000,5.0623e-11,
-300000,5.1109e-11,
-400000,5.2629e-11,
-500000,5.5414e-11,
-600000,6.2438e-11,
-700000,7.7849e-11,
-800000,1.0465e-10,
-900000,1.3472e-10,
-1000000,1.3467e-10,
-1100000,1.0843e-10,
-1200000,8.4634e-11,
-1300000,7.0325e-11,
-1400000,6.2748e-11,
-1500000,5.8984e-11,
-1600000,5.939e-11,
-1700000,5.8315e-11,
-1800000,5.7427e-11,
-1900000,5.478e-11,
-2000000,5.2385e-11,
-2100000,4.9336e-11,
-2200000,5.0185e-11,
-2300000,5.411e-11,
-2400000,5.7646e-11,
-2500000,6.2347e-11,
-2600000,6.0552e-11,
-2700000,5.751e-11,
-2800000,5.1384e-11,
-2900000,4.7731e-11,
-3000000,4.5029e-11,
-3100000,4.4126e-11,
-3200000,4.5434e-11,
-3300000,4.5482e-11,
-3400000,4.4688e-11,
-3500000,4.3955e-11,
-3600000,4.2421e-11,
-3700000,3.9837e-11,
-3800000,3.8295e-11,
-3900000,3.4514e-11,
-4000000,3.3661e-11,
-4100000,3.2934e-11,
-4200000,3.3048e-11,
-4300000,3.0724e-11,
-4400000,3.2033e-11,
-4500000,3.1338e-11,
-4600000,3.1207e-11,
-4700000,3.0645e-11,
-4800000,3.0316e-11,
-4900000,2.9565e-11,
-5000000,2.7721e-11,
-4950000,2.7721e-11,
-4850000,2.908e-11,
-4750000,2.9311e-11,
-4650000,3.0377e-11,
-4550000,3.1e-11,
-4450000,3.246e-11,
-4350000,3.1864e-11,
-4250000,3.1562e-11,
-4150000,3.2031e-11,
-4050000,3.2304e-11,
-3950000,3.3833e-11,
-3850000,3.665e-11,
-3750000,3.8316e-11,
-3650000,4.0012e-11,
-3550000,4.3599e-11,
-3450000,4.5823e-11,
-3350000,4.5805e-11,
-3250000,4.4579e-11,
-3150000,4.4489e-11,
-3050000,4.4447e-11,
-2950000,4.5463e-11,
-2850000,4.9178e-11,
-2750000,5.3698e-11,
-2650000,5.891e-11,
-2550000,6.2574e-11,
-2450000,6.0169e-11,
-2350000,5.6687e-11,
-2250000,5.2171e-11,
-2150000,4.9397e-11,
-2050000,5.0637e-11,
-1950000,5.2696e-11,
-1850000,5.5848e-11,
-1750000,5.8007e-11,
-1650000,5.8323e-11,
-1550000,5.8255e-11,
-1450000,5.8588e-11,
-1350000,6.3883e-11,
-1250000,7.4286e-11,
-1150000,9.2339e-11,
-1050000,1.2256e-10,
-950000,1.3842e-10,
-850000,1.2707e-10,
-750000,9.2726e-11,
-650000,7.0277e-11,
-550000,5.8485e-11,
-450000,5.3999e-11,
-350000,5.2436e-11,
-250000,5.1188e-11,
-150000,5.1983e-11,
-50000,5.1704e-11,
50000,4.957e-11,
150000,4.9344e-11,
