General parameters:
Start time: 2023              8             23             14              5      41.560197
Finish time: 2023              8             23             14             11      37.770494
Dwell time (ms): 3000.000000
Source chamber pressure: 2.00e+3
Differential chamber pressure: 7.72e-07
Sample chamber pressure: 3.84e-08
Example position (nm): -2898890.091918,203711.576482,-1000000.000000
Rotation angle (udeg): 129999900.000000
==========
Instrument status: 
0:Data Directory:/icon/data/2023_08_MoS2_5um_hbn_sub/
1:Sample:MoS2
2:Comments:no
3:PinholePlate:#C13
4:z_Zero:4200
5:Operator:djw77/nav31/kw570
==========
zscan inputs: 
z_sep:50000
z_range:200000 -5000000
data_path:/icon/data/2023_08_MoS2_5um_hbn_sub/
example_pos:-2898890.0919      203711.57648          -1000000
N_dwell:200
sampling_period:15
make_plots:1
m1:0.98976
m2:-0.0073571
==========
Detector params:
Sampling period (ms): 15.000000
N dwell: 200.000000
Filament current (A): 1.540000
Filament emission (mA): 1.762668
Solenoid current (A): NaN
Solenoid shim current (A): NaN
Lens params:
0  685
1  300
2  125
3      -0.002
4       -0.01
5       0.012
6         0.8
7         2.1
8         2.8
9  3000
10  1450
11         0.85
12   0
==========
Data:
z(nm),I(A)
200000,3.9971e-11,
100000,4.1361e-11,
0,4.0414e-11,
-100000,4.0742e-11,
-200000,4.1174e-11,
-300000,4.1754e-11,
-400000,4.1227e-11,
-500000,4.1087e-11,
-600000,4.2681e-11,
-700000,4.2338e-11,
-800000,4.1191e-11,
-900000,4.2767e-11,
-1000000,4.2111e-11,
-1100000,4.2683e-11,
-1200000,4.2266e-11,
-1300000,4.2535e-11,
-1400000,4.2415e-11,
-1500000,4.3076e-11,
-1600000,4.3208e-11,
-1700000,4.2689e-11,
-1800000,4.2647e-11,
-1900000,4.1977e-11,
-2000000,4.1651e-11,
-2100000,4.2913e-11,
-2200000,4.2244e-11,
-2300000,4.135e-11,
-2400000,4.1764e-11,
-2500000,4.0944e-11,
-2600000,4.0356e-11,
-2700000,3.9438e-11,
-2800000,3.9567e-11,
-2900000,3.874e-11,
-3000000,3.7774e-11,
-3100000,3.7334e-11,
-3200000,3.6636e-11,
-3300000,3.6902e-11,
-3400000,3.6059e-11,
-3500000,3.6242e-11,
-3600000,3.4757e-11,
-3700000,3.4157e-11,
-3800000,3.3393e-11,
-3900000,3.3256e-11,
-4000000,3.2308e-11,
-4100000,3.1801e-11,
-4200000,3.04e-11,
-4300000,3.0932e-11,
-4400000,2.9347e-11,
-4500000,2.8821e-11,
-4600000,2.867e-11,
-4700000,2.8563e-11,
-4800000,2.769e-11,
-4900000,2.6945e-11,
-5000000,2.6932e-11,
-4950000,2.6963e-11,
-4850000,2.7554e-11,
-4750000,2.7817e-11,
-4650000,2.9265e-11,
-4550000,2.9399e-11,
-4450000,2.9237e-11,
-4350000,2.9896e-11,
-4250000,3.0689e-11,
-4150000,3.1696e-11,
-4050000,3.1132e-11,
-3950000,3.1907e-11,
-3850000,3.2687e-11,
-3750000,3.3895e-11,
-3650000,3.4107e-11,
-3550000,3.6153e-11,
-3450000,3.5292e-11,
-3350000,3.5773e-11,
-3250000,3.7125e-11,
-3150000,3.7298e-11,
-3050000,3.8054e-11,
-2950000,3.8571e-11,
-2850000,3.9937e-11,
-2750000,3.9299e-11,
-2650000,3.9981e-11,
-2550000,4.0772e-11,
-2450000,4.1547e-11,
-2350000,4.1101e-11,
-2250000,4.2328e-11,
-2150000,4.1204e-11,
-2050000,4.1679e-11,
-1950000,4.2438e-11,
-1850000,4.283e-11,
-1750000,4.1869e-11,
-1650000,4.3214e-11,
-1550000,4.2886e-11,
-1450000,4.3497e-11,
-1350000,4.249e-11,
-1250000,4.2094e-11,
-1150000,4.2186e-11,
-1050000,4.2679e-11,
-950000,4.2718e-11,
-850000,4.2321e-11,
-750000,4.1304e-11,
-650000,4.2212e-11,
-550000,4.1452e-11,
-450000,4.1898e-11,
-350000,4.0804e-11,
-250000,4.0407e-11,
-150000,4.1087e-11,
-50000,4.0933e-11,
50000,3.9966e-11,
150000,4.0441e-11,
