General parameters:
Start time: 2023              8             18             18             26      46.055897
Finish time: 2023              8             18             18             32      42.555481
Dwell time (ms): 3000.000000
Source chamber pressure: 2.00e+3
Differential chamber pressure: 7.95e-07
Sample chamber pressure: 3.84e-08
Example position (nm): -3561160.091045,255060.513189,-1000000.000000
Rotation angle (udeg): 82499815.000000
==========
Instrument status: 
0:Data Directory:/icon/data/2023_08_MoS2_5um_hbn_sub/
1:Sample:MoS2
2:Comments:no
3:PinholePlate:#C13
4:z_Zero:4200
5:Operator:djw77/nav31/kw570
==========
zscan inputs: 
z_sep:50000
z_range:200000 -5000000
data_path:/icon/data/2023_08_MoS2_5um_hbn_sub/
example_pos:-3561160.091      255060.51319          -1000000
N_dwell:200
sampling_period:15
make_plots:0
m1:0.98976
m2:-0.0073571
==========
Detector params:
Sampling period (ms): 15.000000
N dwell: 200.000000
Filament current (A): 1.540000
Filament emission (mA): 1.661094
Solenoid current (A): NaN
Solenoid shim current (A): NaN
Lens params:
0  685
1  300
2  125
3      -0.002
4       -0.01
5       0.012
6         0.8
7         2.1
8         2.8
9  3000
10  1450
11         0.85
12   0
==========
Data:
z(nm),I(A)
200000,4.151e-11,
100000,4.3525e-11,
0,4.2641e-11,
-100000,3.9461e-11,
-200000,3.8591e-11,
-300000,3.8202e-11,
-400000,3.7465e-11,
-500000,4.0406e-11,
-600000,4.063e-11,
-700000,4.0632e-11,
-800000,4.1512e-11,
-900000,4.0792e-11,
-1000000,4.1376e-11,
-1100000,4.1855e-11,
-1200000,4.5925e-11,
-1300000,4.6634e-11,
-1400000,4.6036e-11,
-1500000,4.4267e-11,
-1600000,4.3459e-11,
-1700000,4.3138e-11,
-1800000,4.218e-11,
-1900000,4.1357e-11,
-2000000,4.155e-11,
-2100000,4.2025e-11,
-2200000,4.0465e-11,
-2300000,4.0842e-11,
-2400000,4.0541e-11,
-2500000,4.0366e-11,
-2600000,3.8588e-11,
-2700000,3.8951e-11,
-2800000,3.9578e-11,
-2900000,3.7492e-11,
-3000000,3.7809e-11,
-3100000,3.6272e-11,
-3200000,3.5606e-11,
-3300000,3.5595e-11,
-3400000,3.5558e-11,
-3500000,3.4572e-11,
-3600000,3.3817e-11,
-3700000,3.3797e-11,
-3800000,3.3057e-11,
-3900000,3.1601e-11,
-4000000,3.0766e-11,
-4100000,3.0481e-11,
-4200000,3.0207e-11,
-4300000,2.9052e-11,
-4400000,2.8465e-11,
-4500000,2.7737e-11,
-4600000,2.8011e-11,
-4700000,2.7909e-11,
-4800000,2.749e-11,
-4900000,2.6208e-11,
-5000000,2.6152e-11,
-4950000,2.688e-11,
-4850000,2.6849e-11,
-4750000,2.7296e-11,
-4650000,2.7412e-11,
-4550000,2.7889e-11,
-4450000,2.7967e-11,
-4350000,2.9701e-11,
-4250000,2.9664e-11,
-4150000,3.0642e-11,
-4050000,3.0028e-11,
-3950000,3.2065e-11,
-3850000,3.2121e-11,
-3750000,3.2887e-11,
-3650000,3.3881e-11,
-3550000,3.3789e-11,
-3450000,3.5354e-11,
-3350000,3.5197e-11,
-3250000,3.7179e-11,
-3150000,3.6001e-11,
-3050000,3.7695e-11,
-2950000,3.8452e-11,
-2850000,3.8954e-11,
-2750000,4.0287e-11,
-2650000,3.969e-11,
-2550000,3.9503e-11,
-2450000,4.0878e-11,
-2350000,4.1656e-11,
-2250000,4.0896e-11,
-2150000,4.161e-11,
-2050000,4.2132e-11,
-1950000,4.2257e-11,
-1850000,4.2585e-11,
-1750000,4.2687e-11,
-1650000,4.4596e-11,
-1550000,4.5808e-11,
-1450000,4.6136e-11,
-1350000,4.7098e-11,
-1250000,4.7855e-11,
-1150000,4.5757e-11,
-1050000,4.3598e-11,
-950000,4.1583e-11,
-850000,4.1996e-11,
-750000,4.2423e-11,
-650000,4.3282e-11,
-550000,4.1839e-11,
-450000,4.1135e-11,
-350000,4.0764e-11,
-250000,3.959e-11,
-150000,4.1591e-11,
-50000,4.3376e-11,
50000,4.5334e-11,
150000,4.5701e-11,
