General parameters:
Start time: 2023              8             21             21             27        27.0484
Finish time: 2023              8             21             21             33      21.681032
Dwell time (ms): 3000.000000
Source chamber pressure: 2.00e+3
Differential chamber pressure: 7.97e-07
Sample chamber pressure: 3.84e-08
Example position (nm): -3681183.380557,253888.539629,-1000000.000000
Rotation angle (udeg): 75000235.000000
==========
Instrument status: 
0:Data Directory:/icon/data/2023_08_MoS2_5um_hbn_sub/
1:Sample:MoS2
2:Comments:no
3:PinholePlate:#C13
4:z_Zero:4200
5:Operator:djw77/nav31/kw570
==========
zscan inputs: 
z_sep:50000
z_range:200000 -5000000
data_path:/icon/data/2023_08_MoS2_5um_hbn_sub/
example_pos:-3681183.3806      253888.53963          -1000000
N_dwell:200
sampling_period:15
make_plots:0
m1:0.98976
m2:-0.0073571
==========
Detector params:
Sampling period (ms): 15.000000
N dwell: 200.000000
Filament current (A): 1.540000
Filament emission (mA): 1.734282
Solenoid current (A): NaN
Solenoid shim current (A): NaN
Lens params:
0  685
1  300
2  125
3      -0.002
4       -0.01
5       0.012
6         0.8
7         2.1
8         2.8
9  3000
10  1450
11         0.85
12   0
==========
Data:
z(nm),I(A)
200000,4.2169e-11,
100000,4.3361e-11,
0,4.269e-11,
-100000,4.3338e-11,
-200000,4.2764e-11,
-300000,4.3435e-11,
-400000,4.3413e-11,
-500000,4.41e-11,
-600000,4.5643e-11,
-700000,4.5405e-11,
-800000,4.6027e-11,
-900000,4.6889e-11,
-1000000,4.7523e-11,
-1100000,4.7698e-11,
-1200000,4.7707e-11,
-1300000,4.7926e-11,
-1400000,4.8985e-11,
-1500000,4.7445e-11,
-1600000,4.8625e-11,
-1700000,4.9217e-11,
-1800000,4.8615e-11,
-1900000,4.796e-11,
-2000000,4.8884e-11,
-2100000,4.8543e-11,
-2200000,4.7993e-11,
-2300000,4.8533e-11,
-2400000,4.7069e-11,
-2500000,4.6536e-11,
-2600000,4.7319e-11,
-2700000,4.5577e-11,
-2800000,4.5045e-11,
-2900000,4.4569e-11,
-3000000,4.4663e-11,
-3100000,4.3005e-11,
-3200000,4.2722e-11,
-3300000,4.2423e-11,
-3400000,4.102e-11,
-3500000,4.1021e-11,
-3600000,4.1293e-11,
-3700000,3.9382e-11,
-3800000,3.8237e-11,
-3900000,3.7152e-11,
-4000000,3.6523e-11,
-4100000,3.609e-11,
-4200000,3.5889e-11,
-4300000,3.4654e-11,
-4400000,3.4586e-11,
-4500000,3.3986e-11,
-4600000,3.3073e-11,
-4700000,3.2983e-11,
-4800000,3.3148e-11,
-4900000,3.2187e-11,
-5000000,3.1485e-11,
-4950000,3.0963e-11,
-4850000,3.2124e-11,
-4750000,3.1752e-11,
-4650000,3.2797e-11,
-4550000,3.3344e-11,
-4450000,3.4295e-11,
-4350000,3.4244e-11,
-4250000,3.5163e-11,
-4150000,3.5965e-11,
-4050000,3.642e-11,
-3950000,3.8067e-11,
-3850000,3.8303e-11,
-3750000,3.8848e-11,
-3650000,3.8979e-11,
-3550000,3.9138e-11,
-3450000,4.0475e-11,
-3350000,4.1489e-11,
-3250000,4.228e-11,
-3150000,4.3442e-11,
-3050000,4.4413e-11,
-2950000,4.5002e-11,
-2850000,4.4658e-11,
-2750000,4.6471e-11,
-2650000,4.6544e-11,
-2550000,4.6889e-11,
-2450000,4.6774e-11,
-2350000,4.7201e-11,
-2250000,4.7866e-11,
-2150000,4.9024e-11,
-2050000,4.8077e-11,
-1950000,4.837e-11,
-1850000,4.9756e-11,
-1750000,4.7876e-11,
-1650000,4.8856e-11,
-1550000,4.865e-11,
-1450000,4.848e-11,
-1350000,4.9212e-11,
-1250000,4.8383e-11,
-1150000,4.7756e-11,
-1050000,4.8508e-11,
-950000,4.6294e-11,
-850000,4.657e-11,
-750000,4.5819e-11,
-650000,4.5e-11,
-550000,4.5083e-11,
-450000,4.4519e-11,
-350000,4.3201e-11,
-250000,4.2622e-11,
-150000,4.3018e-11,
-50000,4.2003e-11,
50000,4.2155e-11,
150000,4.2298e-11,
