General parameters:
Start time: 2023              8             22              2             40      12.621757
Finish time: 2023              8             22              2             46       9.419225
Dwell time (ms): 3000.000000
Source chamber pressure: 2.00e+3
Differential chamber pressure: 7.98e-07
Sample chamber pressure: 3.75e-08
Example position (nm): -3209212.236089,315971.100370,-1000000.000000
Rotation angle (udeg): 107499785.000000
==========
Instrument status: 
0:Data Directory:/icon/data/2023_08_MoS2_5um_hbn_sub/
1:Sample:MoS2
2:Comments:no
3:PinholePlate:#C13
4:z_Zero:4200
5:Operator:djw77/nav31/kw570
==========
zscan inputs: 
z_sep:50000
z_range:200000 -5000000
data_path:/icon/data/2023_08_MoS2_5um_hbn_sub/
example_pos:-3209212.2361      315971.10037          -1000000
N_dwell:200
sampling_period:15
make_plots:0
m1:0.98976
m2:-0.0073571
==========
Detector params:
Sampling period (ms): 15.000000
N dwell: 200.000000
Filament current (A): 1.540000
Filament emission (mA): 1.753776
Solenoid current (A): NaN
Solenoid shim current (A): NaN
Lens params:
0  685
1  300
2  125
3      -0.002
4       -0.01
5       0.012
6         0.8
7         2.1
8         2.8
9  3000
10  1450
11         0.85
12   0
==========
Data:
z(nm),I(A)
200000,4.2583e-11,
100000,4.374e-11,
0,4.4839e-11,
-100000,4.3493e-11,
-200000,4.3956e-11,
-300000,4.4766e-11,
-400000,4.5055e-11,
-500000,4.5303e-11,
-600000,4.8022e-11,
-700000,5.064e-11,
-800000,5.8726e-11,
-900000,5.8988e-11,
-1000000,5.8218e-11,
-1100000,5.5062e-11,
-1200000,4.9512e-11,
-1300000,4.7725e-11,
-1400000,4.7038e-11,
-1500000,4.7375e-11,
-1600000,5.0225e-11,
-1700000,5.2426e-11,
-1800000,4.9395e-11,
-1900000,4.8083e-11,
-2000000,4.6067e-11,
-2100000,4.6554e-11,
-2200000,4.53e-11,
-2300000,4.4768e-11,
-2400000,4.4523e-11,
-2500000,4.3653e-11,
-2600000,4.3252e-11,
-2700000,4.3278e-11,
-2800000,4.1112e-11,
-2900000,4.1561e-11,
-3000000,4.1235e-11,
-3100000,4.046e-11,
-3200000,4.0064e-11,
-3300000,4.0342e-11,
-3400000,3.8802e-11,
-3500000,3.872e-11,
-3600000,3.6505e-11,
-3700000,3.7639e-11,
-3800000,3.5946e-11,
-3900000,3.5377e-11,
-4000000,3.3658e-11,
-4100000,3.3359e-11,
-4200000,3.2948e-11,
-4300000,3.2003e-11,
-4400000,3.2472e-11,
-4500000,3.2074e-11,
-4600000,3.1123e-11,
-4700000,2.9982e-11,
-4800000,3.0243e-11,
-4900000,2.9141e-11,
-5000000,2.8431e-11,
-4950000,2.8322e-11,
-4850000,3.0059e-11,
-4750000,2.9868e-11,
-4650000,3.0899e-11,
-4550000,3.1278e-11,
-4450000,3.1335e-11,
-4350000,3.1722e-11,
-4250000,3.2409e-11,
-4150000,3.3145e-11,
-4050000,3.4763e-11,
-3950000,3.4375e-11,
-3850000,3.4357e-11,
-3750000,3.6673e-11,
-3650000,3.6757e-11,
-3550000,3.7514e-11,
-3450000,3.9022e-11,
-3350000,3.9381e-11,
-3250000,3.9235e-11,
-3150000,4.0966e-11,
-3050000,4.1693e-11,
-2950000,4.0505e-11,
-2850000,4.3207e-11,
-2750000,4.2013e-11,
-2650000,4.3852e-11,
-2550000,4.2831e-11,
-2450000,4.4545e-11,
-2350000,4.4247e-11,
-2250000,4.4521e-11,
-2150000,4.5684e-11,
-2050000,4.5966e-11,
-1950000,4.678e-11,
-1850000,4.8719e-11,
-1750000,5.0928e-11,
-1650000,4.9535e-11,
-1550000,4.8866e-11,
-1450000,4.7744e-11,
-1350000,4.6705e-11,
-1250000,4.7188e-11,
-1150000,4.8981e-11,
-1050000,5.7328e-11,
-950000,5.5431e-11,
-850000,6.1885e-11,
-750000,5.2599e-11,
-650000,4.8442e-11,
-550000,4.6329e-11,
-450000,4.5712e-11,
-350000,4.4912e-11,
-250000,4.394e-11,
-150000,4.4234e-11,
-50000,4.3757e-11,
50000,4.3156e-11,
150000,4.3659e-11,
