General parameters:
Start time: 2023              8             21             14              6      35.646089
Finish time: 2023              8             21             14             12      33.288009
Dwell time (ms): 3000.000000
Source chamber pressure: 2.00e+3
Differential chamber pressure: 7.96e-07
Sample chamber pressure: 3.84e-08
Example position (nm): -3890249.317272,104133.468111,-1000000.000000
Rotation angle (udeg): 57500070.000000
==========
Instrument status: 
0:Data Directory:/icon/data/2023_08_MoS2_5um_hbn_sub/
1:Sample:MoS2
2:Comments:no
3:PinholePlate:#C13
4:z_Zero:4200
5:Operator:djw77/nav31/kw570
==========
zscan inputs: 
z_sep:50000
z_range:200000 -5000000
data_path:/icon/data/2023_08_MoS2_5um_hbn_sub/
example_pos:-3890249.3173      104133.46811          -1000000
N_dwell:200
sampling_period:15
make_plots:0
m1:0.98976
m2:-0.0073571
==========
Detector params:
Sampling period (ms): 15.000000
N dwell: 200.000000
Filament current (A): 1.540000
Filament emission (mA): 1.744200
Solenoid current (A): NaN
Solenoid shim current (A): NaN
Lens params:
0  685
1  300
2  125
3      -0.002
4       -0.01
5       0.012
6         0.8
7         2.1
8         2.8
9  3000
10  1450
11         0.85
12   0
==========
Data:
z(nm),I(A)
200000,4.1321e-11,
100000,4.0528e-11,
0,4.001e-11,
-100000,4.077e-11,
-200000,4.1676e-11,
-300000,4.1238e-11,
-400000,4.2037e-11,
-500000,4.2032e-11,
-600000,4.3229e-11,
-700000,4.267e-11,
-800000,4.3978e-11,
-900000,4.3789e-11,
-1000000,4.4989e-11,
-1100000,4.4187e-11,
-1200000,4.5556e-11,
-1300000,4.6407e-11,
-1400000,4.677e-11,
-1500000,4.6291e-11,
-1600000,4.7136e-11,
-1700000,4.5725e-11,
-1800000,4.7429e-11,
-1900000,4.6562e-11,
-2000000,4.7308e-11,
-2100000,4.6747e-11,
-2200000,4.6717e-11,
-2300000,4.6123e-11,
-2400000,4.6563e-11,
-2500000,4.5473e-11,
-2600000,4.4751e-11,
-2700000,4.5223e-11,
-2800000,4.4279e-11,
-2900000,4.3752e-11,
-3000000,4.2718e-11,
-3100000,4.2444e-11,
-3200000,4.206e-11,
-3300000,4.0783e-11,
-3400000,4.0648e-11,
-3500000,3.9528e-11,
-3600000,3.8772e-11,
-3700000,3.8188e-11,
-3800000,3.7944e-11,
-3900000,3.6231e-11,
-4000000,3.5619e-11,
-4100000,3.5065e-11,
-4200000,3.5204e-11,
-4300000,3.3439e-11,
-4400000,3.3078e-11,
-4500000,3.3034e-11,
-4600000,3.1065e-11,
-4700000,3.1748e-11,
-4800000,3.1837e-11,
-4900000,3.0538e-11,
-5000000,2.9821e-11,
-4950000,3.0115e-11,
-4850000,3.1451e-11,
-4750000,3.0927e-11,
-4650000,3.203e-11,
-4550000,3.2501e-11,
-4450000,3.3475e-11,
-4350000,3.3766e-11,
-4250000,3.4193e-11,
-4150000,3.5485e-11,
-4050000,3.6405e-11,
-3950000,3.6391e-11,
-3850000,3.7013e-11,
-3750000,3.7423e-11,
-3650000,3.9216e-11,
-3550000,3.8781e-11,
-3450000,3.8784e-11,
-3350000,4.0355e-11,
-3250000,4.0531e-11,
-3150000,4.1023e-11,
-3050000,4.2243e-11,
-2950000,4.3792e-11,
-2850000,4.3683e-11,
-2750000,4.3895e-11,
-2650000,4.5159e-11,
-2550000,4.4768e-11,
-2450000,4.602e-11,
-2350000,4.6541e-11,
-2250000,4.7177e-11,
-2150000,4.6921e-11,
-2050000,4.676e-11,
-1950000,4.7588e-11,
-1850000,4.7129e-11,
-1750000,4.7237e-11,
-1650000,4.7229e-11,
-1550000,4.7008e-11,
-1450000,4.734e-11,
-1350000,4.6763e-11,
-1250000,4.668e-11,
-1150000,4.4652e-11,
-1050000,4.6146e-11,
-950000,4.4777e-11,
-850000,4.5148e-11,
-750000,4.4363e-11,
-650000,4.3886e-11,
-550000,4.2327e-11,
-450000,4.2433e-11,
-350000,4.1768e-11,
-250000,4.0245e-11,
-150000,4.1031e-11,
-50000,4.0731e-11,
50000,3.9865e-11,
150000,4.0777e-11,
