General parameters:
Start time: 2023              8             21             16             30      47.069565
Finish time: 2023              8             21             16             36      43.282963
Dwell time (ms): 3000.000000
Source chamber pressure: 2.00e+3
Differential chamber pressure: 7.98e-07
Sample chamber pressure: 3.79e-08
Example position (nm): -3069888.900502,267372.454253,-1000000.000000
Rotation angle (udeg): 117500160.000000
==========
Instrument status: 
0:Data Directory:/icon/data/2023_08_MoS2_5um_hbn_sub/
1:Sample:MoS2
2:Comments:no
3:PinholePlate:#C13
4:z_Zero:4200
5:Operator:djw77/nav31/kw570
==========
zscan inputs: 
z_sep:50000
z_range:200000 -5000000
data_path:/icon/data/2023_08_MoS2_5um_hbn_sub/
example_pos:-3069888.9005      267372.45425          -1000000
N_dwell:200
sampling_period:15
make_plots:0
m1:0.98976
m2:-0.0073571
==========
Detector params:
Sampling period (ms): 15.000000
N dwell: 200.000000
Filament current (A): 1.540000
Filament emission (mA): 1.741806
Solenoid current (A): NaN
Solenoid shim current (A): NaN
Lens params:
0  685
1  300
2  125
3      -0.002
4       -0.01
5       0.012
6         0.8
7         2.1
8         2.8
9  3000
10  1450
11         0.85
12   0
==========
Data:
z(nm),I(A)
200000,4.5634e-11,
100000,4.5347e-11,
0,4.5672e-11,
-100000,4.5887e-11,
-200000,4.5934e-11,
-300000,4.5522e-11,
-400000,4.5422e-11,
-500000,4.6878e-11,
-600000,4.7001e-11,
-700000,4.786e-11,
-800000,4.6999e-11,
-900000,4.7934e-11,
-1000000,4.8012e-11,
-1100000,4.7827e-11,
-1200000,4.7268e-11,
-1300000,4.7684e-11,
-1400000,4.8447e-11,
-1500000,4.8356e-11,
-1600000,4.8098e-11,
-1700000,4.8396e-11,
-1800000,4.8455e-11,
-1900000,4.7798e-11,
-2000000,4.8979e-11,
-2100000,4.7682e-11,
-2200000,4.7331e-11,
-2300000,4.8036e-11,
-2400000,4.7368e-11,
-2500000,4.6392e-11,
-2600000,4.5779e-11,
-2700000,4.5071e-11,
-2800000,4.4164e-11,
-2900000,4.3522e-11,
-3000000,4.3696e-11,
-3100000,4.2102e-11,
-3200000,4.3199e-11,
-3300000,4.1204e-11,
-3400000,4.0134e-11,
-3500000,4.0274e-11,
-3600000,3.8705e-11,
-3700000,3.8562e-11,
-3800000,3.8614e-11,
-3900000,3.7426e-11,
-4000000,3.6189e-11,
-4100000,3.6718e-11,
-4200000,3.5702e-11,
-4300000,3.3794e-11,
-4400000,3.2802e-11,
-4500000,3.4612e-11,
-4600000,3.2595e-11,
-4700000,3.198e-11,
-4800000,3.1385e-11,
-4900000,3.1246e-11,
-5000000,3.0887e-11,
-4950000,3.0622e-11,
-4850000,3.163e-11,
-4750000,3.1226e-11,
-4650000,3.3491e-11,
-4550000,3.4036e-11,
-4450000,3.3742e-11,
-4350000,3.4718e-11,
-4250000,3.4215e-11,
-4150000,3.5294e-11,
-4050000,3.675e-11,
-3950000,3.6914e-11,
-3850000,3.6939e-11,
-3750000,3.8503e-11,
-3650000,3.8365e-11,
-3550000,3.877e-11,
-3450000,3.9921e-11,
-3350000,4.1392e-11,
-3250000,4.1471e-11,
-3150000,4.2185e-11,
-3050000,4.2688e-11,
-2950000,4.354e-11,
-2850000,4.4831e-11,
-2750000,4.5532e-11,
-2650000,4.5531e-11,
-2550000,4.5853e-11,
-2450000,4.6438e-11,
-2350000,4.6037e-11,
-2250000,4.7173e-11,
-2150000,4.82e-11,
-2050000,4.7085e-11,
-1950000,4.8073e-11,
-1850000,4.7476e-11,
-1750000,4.8063e-11,
-1650000,4.8761e-11,
-1550000,4.8267e-11,
-1450000,4.725e-11,
-1350000,4.7583e-11,
-1250000,4.8606e-11,
-1150000,4.8415e-11,
-1050000,4.8099e-11,
-950000,4.7935e-11,
-850000,4.7817e-11,
-750000,4.7576e-11,
-650000,4.7235e-11,
-550000,4.6335e-11,
-450000,4.6429e-11,
-350000,4.7373e-11,
-250000,4.5679e-11,
-150000,4.6646e-11,
-50000,4.5837e-11,
50000,4.5451e-11,
150000,4.4721e-11,
