General parameters:
Start time: 2023              8             28              2              9       8.857584
Finish time: 2023              8             28              2             15       5.051191
Dwell time (ms): 3000.000000
Source chamber pressure: 2.00e+3
Differential chamber pressure: 6.36e-07
Sample chamber pressure: 3.62e-08
Example position (nm): -4010349.014517,20216.866066,-1000000.000000
Rotation angle (udeg): 52499525.000000
==========
Instrument status: 
0:Data Directory:/icon/data/2023_08_MoS2_5um_hbn_sub/
1:Sample:MoS2
2:Comments:no
3:PinholePlate:#C13
4:z_Zero:4200
5:Operator:djw77/nav31/kw570
==========
zscan inputs: 
z_sep:50000
z_range:200000 -5000000
data_path:/icon/data/2023_08_MoS2_5um_hbn_sub/
example_pos:-4010349.0145      20216.866066          -1000000
N_dwell:200
sampling_period:15
make_plots:1
m1:0.98976
m2:-0.0073571
==========
Detector params:
Sampling period (ms): 15.000000
N dwell: 200.000000
Filament current (A): 1.540000
Filament emission (mA): 1.901862
Solenoid current (A): NaN
Solenoid shim current (A): NaN
Lens params:
0  685
1  300
2  125
3      -0.002
4       -0.01
5       0.012
6         0.8
7         2.1
8         2.8
9  3000
10  1450
11         0.85
12   0
==========
Data:
z(nm),I(A)
200000,4.2564e-11,
100000,4.248e-11,
0,4.2419e-11,
-100000,4.2071e-11,
-200000,4.2814e-11,
-300000,4.3318e-11,
-400000,4.4669e-11,
-500000,4.4321e-11,
-600000,4.5148e-11,
-700000,4.5614e-11,
-800000,4.6995e-11,
-900000,4.916e-11,
-1000000,4.8496e-11,
-1100000,4.8214e-11,
-1200000,4.7637e-11,
-1300000,4.9568e-11,
-1400000,4.9089e-11,
-1500000,4.9528e-11,
-1600000,5.0012e-11,
-1700000,5.0123e-11,
-1800000,5.0542e-11,
-1900000,4.9498e-11,
-2000000,4.9669e-11,
-2100000,4.9925e-11,
-2200000,4.8586e-11,
-2300000,4.8718e-11,
-2400000,4.8478e-11,
-2500000,4.7952e-11,
-2600000,4.7449e-11,
-2700000,4.8727e-11,
-2800000,4.7099e-11,
-2900000,4.5678e-11,
-3000000,4.5427e-11,
-3100000,4.485e-11,
-3200000,4.4556e-11,
-3300000,4.4898e-11,
-3400000,4.3045e-11,
-3500000,4.1169e-11,
-3600000,4.0425e-11,
-3700000,4.0859e-11,
-3800000,3.9626e-11,
-3900000,3.7681e-11,
-4000000,3.8208e-11,
-4100000,3.7033e-11,
-4200000,3.7037e-11,
-4300000,3.6047e-11,
-4400000,3.5551e-11,
-4500000,3.5466e-11,
-4600000,3.3584e-11,
-4700000,3.3097e-11,
-4800000,3.2932e-11,
-4900000,3.2756e-11,
-5000000,3.1178e-11,
-4950000,3.325e-11,
-4850000,3.1961e-11,
-4750000,3.3082e-11,
-4650000,3.3396e-11,
-4550000,3.4395e-11,
-4450000,3.5525e-11,
-4350000,3.6029e-11,
-4250000,3.6513e-11,
-4150000,3.7401e-11,
-4050000,3.7525e-11,
-3950000,3.8196e-11,
-3850000,3.9317e-11,
-3750000,4.0136e-11,
-3650000,4.0133e-11,
-3550000,4.0204e-11,
-3450000,4.1944e-11,
-3350000,4.4257e-11,
-3250000,4.3344e-11,
-3150000,4.4315e-11,
-3050000,4.4609e-11,
-2950000,4.5505e-11,
-2850000,4.4713e-11,
-2750000,4.72e-11,
-2650000,4.7418e-11,
-2550000,4.6423e-11,
-2450000,4.828e-11,
-2350000,4.8627e-11,
-2250000,4.9693e-11,
-2150000,4.9987e-11,
-2050000,5.0335e-11,
-1950000,4.9746e-11,
-1850000,4.9599e-11,
-1750000,5.0232e-11,
-1650000,5.0541e-11,
-1550000,4.9615e-11,
-1450000,4.8728e-11,
-1350000,5.0185e-11,
-1250000,4.8753e-11,
-1150000,4.9009e-11,
-1050000,4.8093e-11,
-950000,4.851e-11,
-850000,4.8243e-11,
-750000,4.7033e-11,
-650000,4.5615e-11,
-550000,4.4272e-11,
-450000,4.4574e-11,
-350000,4.3944e-11,
-250000,4.2481e-11,
-150000,4.3175e-11,
-50000,4.2081e-11,
50000,4.1984e-11,
150000,4.2206e-11,
