General parameters:
Start time: 2023              8             22              3             28      28.242132
Finish time: 2023              8             22              3             34       24.98848
Dwell time (ms): 3000.000000
Source chamber pressure: 2.00e+3
Differential chamber pressure: 7.98e-07
Sample chamber pressure: 3.79e-08
Example position (nm): -2929494.853532,220985.005954,-1000000.000000
Rotation angle (udeg): 127499805.000000
==========
Instrument status: 
0:Data Directory:/icon/data/2023_08_MoS2_5um_hbn_sub/
1:Sample:MoS2
2:Comments:no
3:PinholePlate:#C13
4:z_Zero:4200
5:Operator:djw77/nav31/kw570
==========
zscan inputs: 
z_sep:50000
z_range:200000 -5000000
data_path:/icon/data/2023_08_MoS2_5um_hbn_sub/
example_pos:-2929494.8535      220985.00595          -1000000
N_dwell:200
sampling_period:15
make_plots:0
m1:0.98976
m2:-0.0073571
==========
Detector params:
Sampling period (ms): 15.000000
N dwell: 200.000000
Filament current (A): 1.540000
Filament emission (mA): 1.755828
Solenoid current (A): NaN
Solenoid shim current (A): NaN
Lens params:
0  685
1  300
2  125
3      -0.002
4       -0.01
5       0.012
6         0.8
7         2.1
8         2.8
9  3000
10  1450
11         0.85
12   0
==========
Data:
z(nm),I(A)
200000,4.2903e-11,
100000,4.2925e-11,
0,4.3877e-11,
-100000,4.4452e-11,
-200000,4.4092e-11,
-300000,4.3941e-11,
-400000,4.4773e-11,
-500000,4.4714e-11,
-600000,4.4803e-11,
-700000,4.5171e-11,
-800000,4.5439e-11,
-900000,4.5299e-11,
-1000000,4.5422e-11,
-1100000,4.5503e-11,
-1200000,4.4618e-11,
-1300000,4.6671e-11,
-1400000,4.5617e-11,
-1500000,4.6153e-11,
-1600000,4.6295e-11,
-1700000,4.5802e-11,
-1800000,4.6149e-11,
-1900000,4.6281e-11,
-2000000,4.5202e-11,
-2100000,4.5124e-11,
-2200000,4.5098e-11,
-2300000,4.531e-11,
-2400000,4.4134e-11,
-2500000,4.3643e-11,
-2600000,4.2402e-11,
-2700000,4.2652e-11,
-2800000,4.219e-11,
-2900000,4.1549e-11,
-3000000,4.1333e-11,
-3100000,4.0419e-11,
-3200000,3.9865e-11,
-3300000,4.0162e-11,
-3400000,3.7932e-11,
-3500000,3.8054e-11,
-3600000,3.6406e-11,
-3700000,3.5845e-11,
-3800000,3.5854e-11,
-3900000,3.5426e-11,
-4000000,3.4268e-11,
-4100000,3.3557e-11,
-4200000,3.3436e-11,
-4300000,3.2116e-11,
-4400000,3.1728e-11,
-4500000,3.1678e-11,
-4600000,3.1173e-11,
-4700000,2.9604e-11,
-4800000,3.0263e-11,
-4900000,2.8569e-11,
-5000000,2.8507e-11,
-4950000,2.8512e-11,
-4850000,2.9253e-11,
-4750000,2.9482e-11,
-4650000,3.0345e-11,
-4550000,3.0232e-11,
-4450000,3.1147e-11,
-4350000,3.2447e-11,
-4250000,3.2532e-11,
-4150000,3.3122e-11,
-4050000,3.3365e-11,
-3950000,3.4526e-11,
-3850000,3.5143e-11,
-3750000,3.5818e-11,
-3650000,3.6255e-11,
-3550000,3.6669e-11,
-3450000,3.7317e-11,
-3350000,3.8447e-11,
-3250000,3.8806e-11,
-3150000,3.9575e-11,
-3050000,4.1087e-11,
-2950000,4.0855e-11,
-2850000,4.0405e-11,
-2750000,4.2731e-11,
-2650000,4.2897e-11,
-2550000,4.3218e-11,
-2450000,4.4019e-11,
-2350000,4.4101e-11,
-2250000,4.4004e-11,
-2150000,4.5299e-11,
-2050000,4.5035e-11,
-1950000,4.6447e-11,
-1850000,4.5756e-11,
-1750000,4.5072e-11,
-1650000,4.5337e-11,
-1550000,4.6148e-11,
-1450000,4.6481e-11,
-1350000,4.6868e-11,
-1250000,4.6673e-11,
-1150000,4.6147e-11,
-1050000,4.5083e-11,
-950000,4.4943e-11,
-850000,4.635e-11,
-750000,4.6243e-11,
-650000,4.4952e-11,
-550000,4.4396e-11,
-450000,4.4179e-11,
-350000,4.4521e-11,
-250000,4.3053e-11,
-150000,4.2797e-11,
-50000,4.2447e-11,
50000,4.3861e-11,
150000,4.3869e-11,
