General parameters:
Start time: 2023              8             23             12             35      10.167964
Finish time: 2023              8             23             12             41       6.123196
Dwell time (ms): 3000.000000
Source chamber pressure: 2.00e+3
Differential chamber pressure: 7.73e-07
Sample chamber pressure: 3.79e-08
Example position (nm): -3928460.373455,88650.537541,-1000000.000000
Rotation angle (udeg): 55000480.000000
==========
Instrument status: 
0:Data Directory:/icon/data/2023_08_MoS2_5um_hbn_sub/
1:Sample:MoS2
2:Comments:no
3:PinholePlate:#C13
4:z_Zero:4200
5:Operator:djw77/nav31/kw570
==========
zscan inputs: 
z_sep:50000
z_range:200000 -5000000
data_path:/icon/data/2023_08_MoS2_5um_hbn_sub/
example_pos:-3928460.3735      88650.537541          -1000000
N_dwell:200
sampling_period:15
make_plots:1
m1:0.98976
m2:-0.0073571
==========
Detector params:
Sampling period (ms): 15.000000
N dwell: 200.000000
Filament current (A): 1.540000
Filament emission (mA): 1.783188
Solenoid current (A): NaN
Solenoid shim current (A): NaN
Lens params:
0  685
1  300
2  125
3      -0.002
4       -0.01
5       0.012
6         0.8
7         2.1
8         2.8
9  3000
10  1450
11         0.85
12   0
==========
Data:
z(nm),I(A)
200000,3.4347e-11,
100000,3.3693e-11,
0,3.3576e-11,
-100000,3.4291e-11,
-200000,3.4747e-11,
-300000,3.4629e-11,
-400000,3.4664e-11,
-500000,3.5328e-11,
-600000,3.6085e-11,
-700000,3.5673e-11,
-800000,3.7146e-11,
-900000,3.7608e-11,
-1000000,3.6905e-11,
-1100000,3.7653e-11,
-1200000,3.8382e-11,
-1300000,3.8326e-11,
-1400000,3.9377e-11,
-1500000,3.8833e-11,
-1600000,3.9078e-11,
-1700000,3.9287e-11,
-1800000,3.973e-11,
-1900000,3.9481e-11,
-2000000,3.9288e-11,
-2100000,3.8128e-11,
-2200000,3.864e-11,
-2300000,3.7551e-11,
-2400000,3.8476e-11,
-2500000,3.7959e-11,
-2600000,3.7227e-11,
-2700000,3.7051e-11,
-2800000,3.6174e-11,
-2900000,3.7075e-11,
-3000000,3.5769e-11,
-3100000,3.4583e-11,
-3200000,3.5034e-11,
-3300000,3.3928e-11,
-3400000,3.3274e-11,
-3500000,3.2544e-11,
-3600000,3.243e-11,
-3700000,3.238e-11,
-3800000,3.1318e-11,
-3900000,3.0603e-11,
-4000000,2.9961e-11,
-4100000,3.0234e-11,
-4200000,2.9158e-11,
-4300000,2.8564e-11,
-4400000,2.8162e-11,
-4500000,2.6784e-11,
-4600000,2.7682e-11,
-4700000,2.6687e-11,
-4800000,2.5741e-11,
-4900000,2.551e-11,
-5000000,2.5216e-11,
-4950000,2.5169e-11,
-4850000,2.5323e-11,
-4750000,2.5416e-11,
-4650000,2.6992e-11,
-4550000,2.6046e-11,
-4450000,2.7427e-11,
-4350000,2.8018e-11,
-4250000,2.8887e-11,
-4150000,2.9644e-11,
-4050000,2.927e-11,
-3950000,3.0068e-11,
-3850000,3.0867e-11,
-3750000,3.1686e-11,
-3650000,3.2185e-11,
-3550000,3.2367e-11,
-3450000,3.4161e-11,
-3350000,3.3482e-11,
-3250000,3.451e-11,
-3150000,3.437e-11,
-3050000,3.5677e-11,
-2950000,3.6339e-11,
-2850000,3.6438e-11,
-2750000,3.6199e-11,
-2650000,3.68e-11,
-2550000,3.8123e-11,
-2450000,3.8937e-11,
-2350000,3.8414e-11,
-2250000,3.8779e-11,
-2150000,3.9585e-11,
-2050000,4.0333e-11,
-1950000,3.947e-11,
-1850000,4.0124e-11,
-1750000,3.964e-11,
-1650000,3.9726e-11,
-1550000,3.8768e-11,
-1450000,3.9595e-11,
-1350000,3.9844e-11,
-1250000,3.8572e-11,
-1150000,3.8475e-11,
-1050000,3.8395e-11,
-950000,3.806e-11,
-850000,3.7086e-11,
-750000,3.719e-11,
-650000,3.5873e-11,
-550000,3.5855e-11,
-450000,3.511e-11,
-350000,3.4469e-11,
-250000,3.422e-11,
-150000,3.3662e-11,
-50000,3.4429e-11,
50000,3.4369e-11,
150000,3.4237e-11,
