General parameters:
Start time: 2023              8             22             13             54      38.494423
Finish time: 2023              8             22             14              0       32.73873
Dwell time (ms): 3000.000000
Source chamber pressure: 2.00e+3
Differential chamber pressure: 7.98e-07
Sample chamber pressure: 3.79e-08
Example position (nm): -3015757.865328,197252.185157,-1000000.000000
Rotation angle (udeg): 120000285.000000
==========
Instrument status: 
0:Data Directory:/icon/data/2023_08_MoS2_5um_hbn_sub/
1:Sample:MoS2
2:Comments:no
3:PinholePlate:#C13
4:z_Zero:4200
5:Operator:djw77/nav31/kw570
==========
zscan inputs: 
z_sep:50000
z_range:200000 -5000000
data_path:/icon/data/2023_08_MoS2_5um_hbn_sub/
example_pos:-3015757.8653      197252.18516          -1000000
N_dwell:200
sampling_period:15
make_plots:0
m1:0.98976
m2:-0.0073571
==========
Detector params:
Sampling period (ms): 15.000000
N dwell: 200.000000
Filament current (A): 1.540000
Filament emission (mA): 1.735992
Solenoid current (A): NaN
Solenoid shim current (A): NaN
Lens params:
0  685
1  300
2  125
3      -0.002
4       -0.01
5       0.012
6         0.8
7         2.1
8         2.8
9  3000
10  1450
11         0.85
12   0
==========
Data:
z(nm),I(A)
200000,4.6244e-11,
100000,4.6461e-11,
0,4.5678e-11,
-100000,4.754e-11,
-200000,4.6377e-11,
-300000,4.7079e-11,
-400000,4.7029e-11,
-500000,4.7751e-11,
-600000,4.7835e-11,
-700000,4.794e-11,
-800000,4.8182e-11,
-900000,4.7717e-11,
-1000000,4.7724e-11,
-1100000,4.8431e-11,
-1200000,4.8746e-11,
-1300000,4.786e-11,
-1400000,4.8886e-11,
-1500000,4.901e-11,
-1600000,4.8447e-11,
-1700000,4.8638e-11,
-1800000,4.8437e-11,
-1900000,4.9058e-11,
-2000000,4.8075e-11,
-2100000,4.7867e-11,
-2200000,4.87e-11,
-2300000,4.7375e-11,
-2400000,4.7885e-11,
-2500000,4.6688e-11,
-2600000,4.4707e-11,
-2700000,4.5271e-11,
-2800000,4.4912e-11,
-2900000,4.3679e-11,
-3000000,4.35e-11,
-3100000,4.3648e-11,
-3200000,4.2253e-11,
-3300000,4.1681e-11,
-3400000,4.1079e-11,
-3500000,3.8996e-11,
-3600000,4.0084e-11,
-3700000,3.9484e-11,
-3800000,3.8767e-11,
-3900000,3.6904e-11,
-4000000,3.653e-11,
-4100000,3.6427e-11,
-4200000,3.4882e-11,
-4300000,3.5168e-11,
-4400000,3.4541e-11,
-4500000,3.3128e-11,
-4600000,3.2678e-11,
-4700000,3.2424e-11,
-4800000,3.2213e-11,
-4900000,3.2478e-11,
-5000000,3.1736e-11,
-4950000,3.0351e-11,
-4850000,3.1349e-11,
-4750000,3.218e-11,
-4650000,3.2316e-11,
-4550000,3.2822e-11,
-4450000,3.3907e-11,
-4350000,3.4253e-11,
-4250000,3.4868e-11,
-4150000,3.6735e-11,
-4050000,3.6076e-11,
-3950000,3.7604e-11,
-3850000,3.7942e-11,
-3750000,3.9506e-11,
-3650000,3.8622e-11,
-3550000,4.0646e-11,
-3450000,4.1068e-11,
-3350000,4.0971e-11,
-3250000,4.2385e-11,
-3150000,4.2829e-11,
-3050000,4.3393e-11,
-2950000,4.4351e-11,
-2850000,4.4176e-11,
-2750000,4.4846e-11,
-2650000,4.6201e-11,
-2550000,4.6626e-11,
-2450000,4.671e-11,
-2350000,4.7808e-11,
-2250000,4.7808e-11,
-2150000,4.8091e-11,
-2050000,4.7956e-11,
-1950000,4.9519e-11,
-1850000,4.8334e-11,
-1750000,4.9553e-11,
-1650000,4.8951e-11,
-1550000,4.9171e-11,
-1450000,4.8338e-11,
-1350000,4.8399e-11,
-1250000,4.8537e-11,
-1150000,4.8449e-11,
-1050000,4.8308e-11,
-950000,4.8849e-11,
-850000,4.7783e-11,
-750000,4.7821e-11,
-650000,4.8015e-11,
-550000,4.681e-11,
-450000,4.6818e-11,
-350000,4.7408e-11,
-250000,4.5718e-11,
-150000,4.6642e-11,
-50000,4.6482e-11,
50000,4.5833e-11,
150000,4.5855e-11,
