General parameters:
Start time: 2023              8             29              1             25      28.064316
Finish time: 2023              8             29              1             32      30.096069
Dwell time (ms): 3000.000000
Source chamber pressure: 2.00e+3
Differential chamber pressure: 6.08e-07
Sample chamber pressure: 3.62e-08
Example position (nm): -4191440.775400,-201306.259210,-1000000.000000
Rotation angle (udeg): 32500155.000000
==========
Instrument status: 
0:Data Directory:/icon/data/2023_08_MoS2_5um_hbn_sub/
1:Sample:MoS2
2:Comments:no
3:PinholePlate:#C13
4:z_Zero:4200
5:Operator:djw77/nav31/kw570
==========
zscan inputs: 
z_sep:50000
z_range:200000 -6000000
data_path:/icon/data/2023_08_MoS2_5um_hbn_sub/
example_pos:-4191440.7754     -201306.25921          -1000000
N_dwell:200
sampling_period:15
make_plots:1
m1:0.98976
m2:-0.0073571
==========
Detector params:
Sampling period (ms): 15.000000
N dwell: 200.000000
Filament current (A): 1.540000
Filament emission (mA): 1.913832
Solenoid current (A): NaN
Solenoid shim current (A): NaN
Lens params:
0  685
1  300
2  125
3      -0.002
4       -0.01
5       0.012
6         0.8
7         2.1
8         2.8
9  3000
10  1450
11         0.85
12   0
==========
Data:
z(nm),I(A)
200000,4.797e-11,
100000,4.7756e-11,
0,4.8117e-11,
-100000,4.7902e-11,
-200000,4.8478e-11,
-300000,5.0415e-11,
-400000,5.0209e-11,
-500000,5.0781e-11,
-600000,5.1063e-11,
-700000,5.2348e-11,
-800000,5.3185e-11,
-900000,5.3415e-11,
-1000000,5.448e-11,
-1100000,5.5177e-11,
-1200000,5.5572e-11,
-1300000,5.6191e-11,
-1400000,5.6298e-11,
-1500000,5.7496e-11,
-1600000,5.7629e-11,
-1700000,5.7166e-11,
-1800000,5.7327e-11,
-1900000,5.6574e-11,
-2000000,5.5906e-11,
-2100000,5.6261e-11,
-2200000,5.5655e-11,
-2300000,5.7026e-11,
-2400000,5.5306e-11,
-2500000,5.4542e-11,
-2600000,5.4132e-11,
-2700000,5.432e-11,
-2800000,5.2157e-11,
-2900000,5.1941e-11,
-3000000,5.1444e-11,
-3100000,5.0641e-11,
-3200000,5.0171e-11,
-3300000,4.9853e-11,
-3400000,4.8605e-11,
-3500000,4.8468e-11,
-3600000,4.5498e-11,
-3700000,4.5865e-11,
-3800000,4.5632e-11,
-3900000,4.6141e-11,
-4000000,4.3095e-11,
-4100000,4.2833e-11,
-4200000,4.1557e-11,
-4300000,4.1593e-11,
-4400000,4.1492e-11,
-4500000,4.0243e-11,
-4600000,3.862e-11,
-4700000,3.8427e-11,
-4800000,3.805e-11,
-4900000,3.8475e-11,
-5000000,3.7304e-11,
-5100000,3.7376e-11,
-5200000,3.4909e-11,
-5300000,3.5535e-11,
-5400000,3.564e-11,
-5500000,3.4008e-11,
-5600000,3.3827e-11,
-5700000,3.3853e-11,
-5800000,3.3576e-11,
-5900000,3.2199e-11,
-6000000,3.1973e-11,
-5950000,3.2445e-11,
-5850000,3.2656e-11,
-5750000,3.2099e-11,
-5650000,3.4087e-11,
-5550000,3.4684e-11,
-5450000,3.5242e-11,
-5350000,3.5391e-11,
-5250000,3.6089e-11,
-5150000,3.6363e-11,
-5050000,3.6568e-11,
-4950000,3.7692e-11,
-4850000,3.7612e-11,
-4750000,3.8499e-11,
-4650000,3.9327e-11,
-4550000,4.0381e-11,
-4450000,4.0482e-11,
-4350000,4.0543e-11,
-4250000,4.1335e-11,
-4150000,4.256e-11,
-4050000,4.3282e-11,
-3950000,4.4951e-11,
-3850000,4.411e-11,
-3750000,4.5309e-11,
-3650000,4.6897e-11,
-3550000,4.6543e-11,
-3450000,4.8033e-11,
-3350000,4.836e-11,
-3250000,5.0396e-11,
-3150000,4.9678e-11,
-3050000,5.0712e-11,
-2950000,5.2429e-11,
-2850000,5.1523e-11,
-2750000,5.3318e-11,
-2650000,5.4693e-11,
-2550000,5.4643e-11,
-2450000,5.5849e-11,
-2350000,5.54e-11,
-2250000,5.6262e-11,
-2150000,5.6118e-11,
-2050000,5.7703e-11,
-1950000,5.7042e-11,
-1850000,5.7595e-11,
-1750000,5.7826e-11,
-1650000,5.6601e-11,
-1550000,5.727e-11,
-1450000,5.6448e-11,
-1350000,5.6229e-11,
-1250000,5.5959e-11,
-1150000,5.5656e-11,
-1050000,5.4666e-11,
-950000,5.3242e-11,
-850000,5.344e-11,
-750000,5.3121e-11,
-650000,5.186e-11,
-550000,5.1121e-11,
-450000,5.2531e-11,
-350000,5.1337e-11,
-250000,5.0228e-11,
-150000,4.958e-11,
-50000,4.8203e-11,
50000,4.9582e-11,
150000,4.8714e-11,
