General parameters:
Start time: 2023              8             29              3             41      13.783723
Finish time: 2023              8             29              3             48      17.542388
Dwell time (ms): 3000.000000
Source chamber pressure: 2.00e+3
Differential chamber pressure: 6.06e-07
Sample chamber pressure: 3.62e-08
Example position (nm): -3631500.000000,271400.000000,-1000000.000000
Rotation angle (udeg): 80000290.000000
==========
Instrument status: 
0:Data Directory:/icon/data/2023_08_MoS2_5um_hbn_sub/
1:Sample:MoS2
2:Comments:no
3:PinholePlate:#C13
4:z_Zero:4200
5:Operator:djw77/nav31/kw570
==========
zscan inputs: 
z_sep:50000
z_range:200000 -6000000
data_path:/icon/data/2023_08_MoS2_5um_hbn_sub/
example_pos:-3631500   271400 -1000000
N_dwell:200
sampling_period:15
make_plots:1
m1:0.98976
m2:-0.0073571
==========
Detector params:
Sampling period (ms): 15.000000
N dwell: 200.000000
Filament current (A): 1.540000
Filament emission (mA): 1.921698
Solenoid current (A): NaN
Solenoid shim current (A): NaN
Lens params:
0  685
1  300
2  125
3      -0.002
4       -0.01
5       0.012
6         0.8
7         2.1
8         2.8
9  3000
10  1450
11         0.85
12   0
==========
Data:
z(nm),I(A)
200000,1.9444e-10,
100000,1.7569e-10,
0,1.5548e-10,
-100000,1.2896e-10,
-200000,1.0776e-10,
-300000,9.3219e-11,
-400000,8.2892e-11,
-500000,7.9642e-11,
-600000,8.8248e-11,
-700000,1.1543e-10,
-800000,1.6713e-10,
-900000,2.3437e-10,
-1000000,2.4975e-10,
-1100000,2.3615e-10,
-1200000,1.7828e-10,
-1300000,1.2885e-10,
-1400000,1.0213e-10,
-1500000,8.8043e-11,
-1600000,8.3452e-11,
-1700000,8.4979e-11,
-1800000,8.6204e-11,
-1900000,8.7405e-11,
-2000000,8.4378e-11,
-2100000,7.8023e-11,
-2200000,7.4766e-11,
-2300000,7.1628e-11,
-2400000,7.161e-11,
-2500000,7.1767e-11,
-2600000,7.0392e-11,
-2700000,6.969e-11,
-2800000,6.8106e-11,
-2900000,6.7367e-11,
-3000000,6.5199e-11,
-3100000,6.5321e-11,
-3200000,6.4741e-11,
-3300000,6.6291e-11,
-3400000,6.6425e-11,
-3500000,6.5604e-11,
-3600000,6.3955e-11,
-3700000,5.9667e-11,
-3800000,5.5138e-11,
-3900000,5.0821e-11,
-4000000,4.7365e-11,
-4100000,4.4342e-11,
-4200000,4.3393e-11,
-4300000,4.2509e-11,
-4400000,4.0994e-11,
-4500000,4.2396e-11,
-4600000,4.1384e-11,
-4700000,4.151e-11,
-4800000,4.2351e-11,
-4900000,4.2169e-11,
-5000000,4.119e-11,
-5100000,3.9822e-11,
-5200000,3.7614e-11,
-5300000,3.7455e-11,
-5400000,3.5418e-11,
-5500000,3.4274e-11,
-5600000,3.4954e-11,
-5700000,3.3873e-11,
-5800000,3.2024e-11,
-5900000,3.1054e-11,
-6000000,3.1506e-11,
-5950000,3.1328e-11,
-5850000,3.0681e-11,
-5750000,3.2762e-11,
-5650000,3.3882e-11,
-5550000,3.4557e-11,
-5450000,3.5466e-11,
-5350000,3.5907e-11,
-5250000,3.8304e-11,
-5150000,3.9169e-11,
-5050000,4.1293e-11,
-4950000,4.2278e-11,
-4850000,4.2382e-11,
-4750000,4.2289e-11,
-4650000,4.1913e-11,
-4550000,4.2923e-11,
-4450000,4.1565e-11,
-4350000,4.2197e-11,
-4250000,4.2834e-11,
-4150000,4.3752e-11,
-4050000,4.4765e-11,
-3950000,4.8096e-11,
-3850000,5.1658e-11,
-3750000,5.6473e-11,
-3650000,6.1335e-11,
-3550000,6.3906e-11,
-3450000,6.6413e-11,
-3350000,6.606e-11,
-3250000,6.4284e-11,
-3150000,6.4767e-11,
-3050000,6.3704e-11,
-2950000,6.5302e-11,
-2850000,6.6816e-11,
-2750000,6.9074e-11,
-2650000,6.9926e-11,
-2550000,7.0681e-11,
-2450000,7.2263e-11,
-2350000,7.2456e-11,
-2250000,7.3475e-11,
-2150000,7.7106e-11,
-2050000,8.1377e-11,
-1950000,8.5657e-11,
-1850000,8.8634e-11,
-1750000,8.7449e-11,
-1650000,8.4941e-11,
-1550000,8.4909e-11,
-1450000,9.1506e-11,
-1350000,1.1111e-10,
-1250000,1.4675e-10,
-1150000,2.1003e-10,
-1050000,2.4718e-10,
-950000,2.5292e-10,
-850000,2.1651e-10,
-750000,1.4776e-10,
-650000,1.0552e-10,
-550000,8.6545e-11,
-450000,8.1566e-11,
-350000,8.7212e-11,
-250000,9.9408e-11,
-150000,1.1583e-10,
-50000,1.4329e-10,
50000,1.6363e-10,
150000,1.8624e-10,
