General parameters:
Start time: 2023              8             18             20              3      26.861807
Finish time: 2023              8             18             20              9       25.11297
Dwell time (ms): 3000.000000
Source chamber pressure: 2.00e+3
Differential chamber pressure: 7.94e-07
Sample chamber pressure: 3.84e-08
Example position (nm): -2940020.046260,215307.734177,-1000000.000000
Rotation angle (udeg): 122499960.000000
==========
Instrument status: 
0:Data Directory:/icon/data/2023_08_MoS2_5um_hbn_sub/
1:Sample:MoS2
2:Comments:no
3:PinholePlate:#C13
4:z_Zero:4200
5:Operator:djw77/nav31/kw570
==========
zscan inputs: 
z_sep:50000
z_range:200000 -5000000
data_path:/icon/data/2023_08_MoS2_5um_hbn_sub/
example_pos:-2940020.0463      215307.73418          -1000000
N_dwell:200
sampling_period:15
make_plots:0
m1:0.98976
m2:-0.0073571
==========
Detector params:
Sampling period (ms): 15.000000
N dwell: 200.000000
Filament current (A): 1.540000
Filament emission (mA): 1.668960
Solenoid current (A): NaN
Solenoid shim current (A): NaN
Lens params:
0  685
1  300
2  125
3      -0.002
4       -0.01
5       0.012
6         0.8
7         2.1
8         2.8
9  3000
10  1450
11         0.85
12   0
==========
Data:
z(nm),I(A)
200000,4.0524e-11,
100000,4.0225e-11,
0,4.1943e-11,
-100000,4.0554e-11,
-200000,4.168e-11,
-300000,4.1164e-11,
-400000,4.1515e-11,
-500000,4.2217e-11,
-600000,4.2274e-11,
-700000,4.2649e-11,
-800000,4.289e-11,
-900000,4.3127e-11,
-1000000,4.2957e-11,
-1100000,4.2738e-11,
-1200000,4.3185e-11,
-1300000,4.4345e-11,
-1400000,4.3359e-11,
-1500000,4.3408e-11,
-1600000,4.2312e-11,
-1700000,4.2797e-11,
-1800000,4.3905e-11,
-1900000,4.3688e-11,
-2000000,4.3559e-11,
-2100000,4.2998e-11,
-2200000,4.3427e-11,
-2300000,4.146e-11,
-2400000,4.1923e-11,
-2500000,4.1342e-11,
-2600000,4.0464e-11,
-2700000,4.0227e-11,
-2800000,3.9764e-11,
-2900000,3.914e-11,
-3000000,3.8696e-11,
-3100000,3.8874e-11,
-3200000,3.6568e-11,
-3300000,3.7003e-11,
-3400000,3.6057e-11,
-3500000,3.5402e-11,
-3600000,3.5183e-11,
-3700000,3.5046e-11,
-3800000,3.4459e-11,
-3900000,3.3251e-11,
-4000000,3.2e-11,
-4100000,3.1674e-11,
-4200000,3.0628e-11,
-4300000,3.0768e-11,
-4400000,2.9835e-11,
-4500000,2.8832e-11,
-4600000,2.8952e-11,
-4700000,2.8571e-11,
-4800000,2.7837e-11,
-4900000,2.771e-11,
-5000000,2.6722e-11,
-4950000,2.7282e-11,
-4850000,2.7166e-11,
-4750000,2.776e-11,
-4650000,2.899e-11,
-4550000,2.8544e-11,
-4450000,2.9564e-11,
-4350000,3.063e-11,
-4250000,3.036e-11,
-4150000,3.1407e-11,
-4050000,3.1787e-11,
-3950000,3.2092e-11,
-3850000,3.2646e-11,
-3750000,3.2887e-11,
-3650000,3.3958e-11,
-3550000,3.5181e-11,
-3450000,3.5081e-11,
-3350000,3.647e-11,
-3250000,3.7727e-11,
-3150000,3.7427e-11,
-3050000,3.9102e-11,
-2950000,3.8739e-11,
-2850000,3.8975e-11,
-2750000,3.9664e-11,
-2650000,4.0507e-11,
-2550000,4.1413e-11,
-2450000,4.1335e-11,
-2350000,4.2258e-11,
-2250000,4.2819e-11,
-2150000,4.2517e-11,
-2050000,4.31e-11,
-1950000,4.3073e-11,
-1850000,4.295e-11,
-1750000,4.3091e-11,
-1650000,4.3319e-11,
-1550000,4.3884e-11,
-1450000,4.3342e-11,
-1350000,4.3746e-11,
-1250000,4.2386e-11,
-1150000,4.3183e-11,
-1050000,4.297e-11,
-950000,4.3271e-11,
-850000,4.2664e-11,
-750000,4.3283e-11,
-650000,4.24e-11,
-550000,4.1512e-11,
-450000,4.2068e-11,
-350000,4.2079e-11,
-250000,4.1597e-11,
-150000,4.1e-11,
-50000,4.2469e-11,
50000,4.1667e-11,
150000,4.1947e-11,
