General parameters:
Start time: 2023              8             21             23              4        3.25389
Finish time: 2023              8             21             23              9      59.276513
Dwell time (ms): 3000.000000
Source chamber pressure: 2.00e+3
Differential chamber pressure: 7.98e-07
Sample chamber pressure: 3.79e-08
Example position (nm): -3100590.424218,291877.497805,-1000000.000000
Rotation angle (udeg): 115000215.000000
==========
Instrument status: 
0:Data Directory:/icon/data/2023_08_MoS2_5um_hbn_sub/
1:Sample:MoS2
2:Comments:no
3:PinholePlate:#C13
4:z_Zero:4200
5:Operator:djw77/nav31/kw570
==========
zscan inputs: 
z_sep:50000
z_range:200000 -5000000
data_path:/icon/data/2023_08_MoS2_5um_hbn_sub/
example_pos:-3100590.4242       291877.4978          -1000000
N_dwell:200
sampling_period:15
make_plots:0
m1:0.98976
m2:-0.0073571
==========
Detector params:
Sampling period (ms): 15.000000
N dwell: 200.000000
Filament current (A): 1.540000
Filament emission (mA): 1.744200
Solenoid current (A): NaN
Solenoid shim current (A): NaN
Lens params:
0  685
1  300
2  125
3      -0.002
4       -0.01
5       0.012
6         0.8
7         2.1
8         2.8
9  3000
10  1450
11         0.85
12   0
==========
Data:
z(nm),I(A)
200000,4.3659e-11,
100000,4.4389e-11,
0,4.4608e-11,
-100000,4.5499e-11,
-200000,4.4325e-11,
-300000,4.5545e-11,
-400000,4.5492e-11,
-500000,4.4862e-11,
-600000,4.5769e-11,
-700000,4.5868e-11,
-800000,4.606e-11,
-900000,4.6137e-11,
-1000000,4.7015e-11,
-1100000,4.6899e-11,
-1200000,4.8286e-11,
-1300000,4.7236e-11,
-1400000,4.7888e-11,
-1500000,4.7464e-11,
-1600000,4.7068e-11,
-1700000,4.7846e-11,
-1800000,4.7411e-11,
-1900000,4.7409e-11,
-2000000,4.85e-11,
-2100000,4.6777e-11,
-2200000,4.6546e-11,
-2300000,4.5687e-11,
-2400000,4.4783e-11,
-2500000,4.5512e-11,
-2600000,4.528e-11,
-2700000,4.3827e-11,
-2800000,4.4063e-11,
-2900000,4.3319e-11,
-3000000,4.3802e-11,
-3100000,4.2104e-11,
-3200000,4.0777e-11,
-3300000,4.0965e-11,
-3400000,3.988e-11,
-3500000,3.9938e-11,
-3600000,3.7548e-11,
-3700000,3.7888e-11,
-3800000,3.7141e-11,
-3900000,3.6644e-11,
-4000000,3.6446e-11,
-4100000,3.5742e-11,
-4200000,3.4764e-11,
-4300000,3.4082e-11,
-4400000,3.3222e-11,
-4500000,3.2429e-11,
-4600000,3.1913e-11,
-4700000,3.102e-11,
-4800000,3.0909e-11,
-4900000,3.0713e-11,
-5000000,2.9661e-11,
-4950000,2.9876e-11,
-4850000,2.9693e-11,
-4750000,3.1176e-11,
-4650000,3.2038e-11,
-4550000,3.1507e-11,
-4450000,3.2493e-11,
-4350000,3.3057e-11,
-4250000,3.4382e-11,
-4150000,3.4127e-11,
-4050000,3.5859e-11,
-3950000,3.6937e-11,
-3850000,3.6745e-11,
-3750000,3.666e-11,
-3650000,3.814e-11,
-3550000,3.8542e-11,
-3450000,3.885e-11,
-3350000,4.0836e-11,
-3250000,4.0659e-11,
-3150000,4.1872e-11,
-3050000,4.3228e-11,
-2950000,4.3484e-11,
-2850000,4.404e-11,
-2750000,4.303e-11,
-2650000,4.466e-11,
-2550000,4.4519e-11,
-2450000,4.5141e-11,
-2350000,4.5471e-11,
-2250000,4.6734e-11,
-2150000,4.7512e-11,
-2050000,4.7208e-11,
-1950000,4.7133e-11,
-1850000,4.7253e-11,
-1750000,4.7147e-11,
-1650000,4.787e-11,
-1550000,4.7655e-11,
-1450000,4.8117e-11,
-1350000,4.7657e-11,
-1250000,4.7363e-11,
-1150000,4.7052e-11,
-1050000,4.6384e-11,
-950000,4.6535e-11,
-850000,4.6502e-11,
-750000,4.6127e-11,
-650000,4.5863e-11,
-550000,4.5181e-11,
-450000,4.4954e-11,
-350000,4.4928e-11,
-250000,4.5548e-11,
-150000,4.4253e-11,
-50000,4.4704e-11,
50000,4.5172e-11,
150000,4.4814e-11,
