General parameters:
Start time: 2023              8             21             17              6      47.363479
Finish time: 2023              8             21             17             12      41.756118
Dwell time (ms): 3000.000000
Source chamber pressure: 2.00e+3
Differential chamber pressure: 7.97e-07
Sample chamber pressure: 3.83e-08
Example position (nm): -2874044.980340,170809.807770,-1000000.000000
Rotation angle (udeg): 132500185.000000
==========
Instrument status: 
0:Data Directory:/icon/data/2023_08_MoS2_5um_hbn_sub/
1:Sample:MoS2
2:Comments:no
3:PinholePlate:#C13
4:z_Zero:4200
5:Operator:djw77/nav31/kw570
==========
zscan inputs: 
z_sep:50000
z_range:200000 -5000000
data_path:/icon/data/2023_08_MoS2_5um_hbn_sub/
example_pos:-2874044.9803      170809.80777          -1000000
N_dwell:200
sampling_period:15
make_plots:0
m1:0.98976
m2:-0.0073571
==========
Detector params:
Sampling period (ms): 15.000000
N dwell: 200.000000
Filament current (A): 1.540000
Filament emission (mA): 1.739412
Solenoid current (A): NaN
Solenoid shim current (A): NaN
Lens params:
0  685
1  300
2  125
3      -0.002
4       -0.01
5       0.012
6         0.8
7         2.1
8         2.8
9  3000
10  1450
11         0.85
12   0
==========
Data:
z(nm),I(A)
200000,4.6021e-11,
100000,4.7114e-11,
0,4.7195e-11,
-100000,4.6212e-11,
-200000,4.6632e-11,
-300000,4.7808e-11,
-400000,4.8448e-11,
-500000,4.7124e-11,
-600000,4.7172e-11,
-700000,4.7626e-11,
-800000,4.8943e-11,
-900000,4.8933e-11,
-1000000,4.8819e-11,
-1100000,4.8891e-11,
-1200000,4.9617e-11,
-1300000,4.8785e-11,
-1400000,4.9619e-11,
-1500000,4.9601e-11,
-1600000,4.9268e-11,
-1700000,4.9922e-11,
-1800000,4.8752e-11,
-1900000,4.8757e-11,
-2000000,4.9621e-11,
-2100000,4.8854e-11,
-2200000,4.7991e-11,
-2300000,4.7443e-11,
-2400000,4.6823e-11,
-2500000,4.7038e-11,
-2600000,4.6031e-11,
-2700000,4.5482e-11,
-2800000,4.5454e-11,
-2900000,4.452e-11,
-3000000,4.4588e-11,
-3100000,4.3048e-11,
-3200000,4.2747e-11,
-3300000,4.1451e-11,
-3400000,4.2004e-11,
-3500000,4.0664e-11,
-3600000,4.036e-11,
-3700000,4.0482e-11,
-3800000,3.8237e-11,
-3900000,3.8429e-11,
-4000000,3.773e-11,
-4100000,3.6359e-11,
-4200000,3.5389e-11,
-4300000,3.5416e-11,
-4400000,3.4941e-11,
-4500000,3.3873e-11,
-4600000,3.3189e-11,
-4700000,3.1989e-11,
-4800000,3.2583e-11,
-4900000,3.2097e-11,
-5000000,3.144e-11,
-4950000,3.106e-11,
-4850000,3.2499e-11,
-4750000,3.3354e-11,
-4650000,3.371e-11,
-4550000,3.3525e-11,
-4450000,3.3809e-11,
-4350000,3.4562e-11,
-4250000,3.5146e-11,
-4150000,3.6252e-11,
-4050000,3.732e-11,
-3950000,3.7204e-11,
-3850000,3.8379e-11,
-3750000,3.9238e-11,
-3650000,3.9051e-11,
-3550000,4.0159e-11,
-3450000,4.132e-11,
-3350000,4.1678e-11,
-3250000,4.2836e-11,
-3150000,4.2735e-11,
-3050000,4.3941e-11,
-2950000,4.5149e-11,
-2850000,4.5486e-11,
-2750000,4.5571e-11,
-2650000,4.5777e-11,
-2550000,4.7447e-11,
-2450000,4.6916e-11,
-2350000,4.6834e-11,
-2250000,4.7899e-11,
-2150000,4.9001e-11,
-2050000,4.8858e-11,
-1950000,4.9312e-11,
-1850000,4.9041e-11,
-1750000,4.8959e-11,
-1650000,5.0662e-11,
-1550000,4.946e-11,
-1450000,4.9127e-11,
-1350000,4.9333e-11,
-1250000,4.9252e-11,
-1150000,4.8404e-11,
-1050000,4.9776e-11,
-950000,4.7837e-11,
-850000,4.9279e-11,
-750000,4.7486e-11,
-650000,4.7947e-11,
-550000,4.6833e-11,
-450000,4.7529e-11,
-350000,4.733e-11,
-250000,4.8589e-11,
-150000,4.7287e-11,
-50000,4.6372e-11,
50000,4.6665e-11,
150000,4.7069e-11,
