General parameters:
Start time: 2023              8             28              5              4       0.956894
Finish time: 2023              8             28              5              9      57.825547
Dwell time (ms): 3000.000000
Source chamber pressure: 2.00e+3
Differential chamber pressure: 6.32e-07
Sample chamber pressure: 3.61e-08
Example position (nm): -2898728.222702,240242.599616,-1000000.000000
Rotation angle (udeg): 124999965.000000
==========
Instrument status: 
0:Data Directory:/icon/data/2023_08_MoS2_5um_hbn_sub/
1:Sample:MoS2
2:Comments:no
3:PinholePlate:#C13
4:z_Zero:4200
5:Operator:djw77/nav31/kw570
==========
zscan inputs: 
z_sep:50000
z_range:200000 -5000000
data_path:/icon/data/2023_08_MoS2_5um_hbn_sub/
example_pos:-2898728.2227      240242.59962          -1000000
N_dwell:200
sampling_period:15
make_plots:1
m1:0.98976
m2:-0.0073571
==========
Detector params:
Sampling period (ms): 15.000000
N dwell: 200.000000
Filament current (A): 1.540000
Filament emission (mA): 1.903230
Solenoid current (A): NaN
Solenoid shim current (A): NaN
Lens params:
0  685
1  300
2  125
3      -0.002
4       -0.01
5       0.012
6         0.8
7         2.1
8         2.8
9  3000
10  1450
11         0.85
12   0
==========
Data:
z(nm),I(A)
200000,7.675e-11,
100000,7.5689e-11,
0,7.2731e-11,
-100000,6.9117e-11,
-200000,6.4762e-11,
-300000,6.2612e-11,
-400000,6.3744e-11,
-500000,6.8252e-11,
-600000,8.1598e-11,
-700000,1.0738e-10,
-800000,1.4198e-10,
-900000,1.5331e-10,
-1000000,1.2468e-10,
-1100000,9.3065e-11,
-1200000,7.8063e-11,
-1300000,6.8891e-11,
-1400000,6.8288e-11,
-1500000,7.6613e-11,
-1600000,9.4582e-11,
-1700000,1.1449e-10,
-1800000,1.1938e-10,
-1900000,1.0863e-10,
-2000000,8.5494e-11,
-2100000,6.9871e-11,
-2200000,6.3513e-11,
-2300000,6.9086e-11,
-2400000,8.5344e-11,
-2500000,1.1593e-10,
-2600000,1.4908e-10,
-2700000,1.6419e-10,
-2800000,1.6344e-10,
-2900000,1.3934e-10,
-3000000,1.076e-10,
-3100000,8.1763e-11,
-3200000,6.7433e-11,
-3300000,6.2226e-11,
-3400000,6.3149e-11,
-3500000,7.0224e-11,
-3600000,7.8951e-11,
-3700000,8.4445e-11,
-3800000,8.9337e-11,
-3900000,8.6559e-11,
-4000000,7.8707e-11,
-4100000,6.7507e-11,
-4200000,5.5891e-11,
-4300000,4.7926e-11,
-4400000,4.231e-11,
-4500000,3.8507e-11,
-4600000,3.6136e-11,
-4700000,3.5173e-11,
-4800000,3.3912e-11,
-4900000,3.249e-11,
-5000000,3.3261e-11,
-4950000,3.3759e-11,
-4850000,3.3409e-11,
-4750000,3.4093e-11,
-4650000,3.5075e-11,
-4550000,3.5869e-11,
-4450000,3.9129e-11,
-4350000,4.3289e-11,
-4250000,5.1175e-11,
-4150000,6.1239e-11,
-4050000,7.2008e-11,
-3950000,8.1864e-11,
-3850000,8.8523e-11,
-3750000,8.7908e-11,
-3650000,8.2306e-11,
-3550000,7.464e-11,
-3450000,6.7269e-11,
-3350000,6.3345e-11,
-3250000,6.266e-11,
-3150000,7.1246e-11,
-3050000,8.8772e-11,
-2950000,1.2224e-10,
-2850000,1.5225e-10,
-2750000,1.6834e-10,
-2650000,1.6093e-10,
-2550000,1.3607e-10,
-2450000,1.0468e-10,
-2350000,7.7724e-11,
-2250000,6.6388e-11,
-2150000,6.4391e-11,
-2050000,7.3407e-11,
-1950000,9.6737e-11,
-1850000,1.143e-10,
-1750000,1.1969e-10,
-1650000,1.0652e-10,
-1550000,8.5535e-11,
-1450000,7.2421e-11,
-1350000,6.6907e-11,
-1250000,7.0445e-11,
-1150000,8.2325e-11,
-1050000,1.0289e-10,
-950000,1.4086e-10,
-850000,1.531e-10,
-750000,1.2925e-10,
-650000,9.6956e-11,
-550000,7.7392e-11,
-450000,6.6271e-11,
-350000,6.4185e-11,
-250000,6.3194e-11,
-150000,6.5098e-11,
-50000,6.8049e-11,
50000,7.3068e-11,
150000,7.6753e-11,
