General parameters:
Start time: 2023              8             15             16             48      44.080687
Finish time: 2023              8             15             17              3      52.730701
Dwell time (ms): 3750.000000
Source chamber pressure: 2.00e+3
Differential chamber pressure: 7.88e-07
Sample chamber pressure: 3.98e-08
Example position (nm): -3499000.000000,276000.000000,-1000000.000000
Rotation angle (udeg): 90000070.000000
==========
Instrument status: 
0:Data Directory:/icon/data/2023_08_MoS2_5um_hbn_sub/
1:Sample:MoS2
2:Comments:no
3:PinholePlate:#C13
4:z_Zero:4200
5:Operator:djw77/nav31/kw570
==========
zscan inputs: 
z_sep:30000
z_range:500000 -6000000
data_path:/icon/data/2023_08_MoS2_5um_hbn_sub/
example_pos:-3499000   276000 -1000000
N_dwell:250
sampling_period:15
make_plots:1
m1:0.98534
m2:-0.0012405
==========
Detector params:
Sampling period (ms): 15.000000
N dwell: 250.000000
Filament current (A): 1.540000
Filament emission (mA): 1.571148
Solenoid current (A): NaN
Solenoid shim current (A): NaN
Lens params:
0  685
1  300
2  125
3      -0.002
4       -0.01
5       0.012
6         0.8
7         2.1
8         2.8
9  3000
10  1450
11         0.85
12   0
==========
Data:
z(nm),I(A)
500000,8.8417e-11,
440000,9.0715e-11,
380000,9.2039e-11,
320000,9.0795e-11,
260000,9.1192e-11,
200000,9.1524e-11,
140000,9.1552e-11,
80000,9.1242e-11,
20000,9.1546e-11,
-40000,9.0619e-11,
-100000,9.1541e-11,
-160000,9.1374e-11,
-220000,9.1481e-11,
-280000,9.1383e-11,
-340000,9.1732e-11,
-400000,9.3334e-11,
-460000,9.3856e-11,
-520000,9.4172e-11,
-580000,9.3945e-11,
-640000,9.4761e-11,
-700000,9.4386e-11,
-760000,9.8696e-11,
-820000,9.7806e-11,
-880000,1.0027e-10,
-940000,1.0012e-10,
-1000000,1.0124e-10,
-1060000,1.0119e-10,
-1120000,1.0042e-10,
-1180000,9.9832e-11,
-1240000,9.847e-11,
-1300000,9.911e-11,
-1360000,9.8768e-11,
-1420000,9.8868e-11,
-1480000,9.8948e-11,
-1540000,9.9553e-11,
-1600000,9.8742e-11,
-1660000,1.001e-10,
-1720000,9.9407e-11,
-1780000,9.7629e-11,
-1840000,9.8258e-11,
-1900000,9.7894e-11,
-1960000,9.7058e-11,
-2020000,9.7426e-11,
-2080000,9.7709e-11,
-2140000,9.6969e-11,
-2200000,9.7228e-11,
-2260000,9.6028e-11,
-2320000,9.6705e-11,
-2380000,9.6083e-11,
-2440000,9.4294e-11,
-2500000,9.5388e-11,
-2560000,9.5579e-11,
-2620000,9.2803e-11,
-2680000,9.1823e-11,
-2740000,9.1886e-11,
-2800000,9.0928e-11,
-2860000,8.9931e-11,
-2920000,8.9729e-11,
-2980000,8.9657e-11,
-3040000,8.7626e-11,
-3100000,8.7159e-11,
-3160000,8.7537e-11,
-3220000,8.5948e-11,
-3280000,8.5188e-11,
-3340000,8.4714e-11,
-3400000,8.4009e-11,
-3460000,8.2555e-11,
-3520000,8.1493e-11,
-3580000,8.1079e-11,
-3640000,8.1097e-11,
-3700000,7.8657e-11,
-3760000,7.8594e-11,
-3820000,7.8258e-11,
-3880000,7.8067e-11,
-3940000,7.7509e-11,
-4000000,7.6533e-11,
-4060000,7.4913e-11,
-4120000,7.5454e-11,
-4180000,7.4913e-11,
-4240000,7.4299e-11,
-4300000,7.2585e-11,
-4360000,7.169e-11,
-4420000,7.1239e-11,
-4480000,7.07e-11,
-4540000,7.1382e-11,
-4600000,7.1046e-11,
-4660000,6.9458e-11,
-4720000,6.8725e-11,
-4780000,6.911e-11,
-4840000,6.8778e-11,
-4900000,6.7824e-11,
-4960000,6.6283e-11,
-5020000,6.6772e-11,
-5080000,6.5817e-11,
-5140000,6.3692e-11,
-5200000,6.5058e-11,
-5260000,6.4916e-11,
-5320000,6.3757e-11,
-5380000,6.3236e-11,
-5440000,6.3215e-11,
-5500000,6.1712e-11,
-5560000,6.1924e-11,
-5620000,6.1702e-11,
-5680000,6.1098e-11,
-5740000,6.005e-11,
-5800000,6.0498e-11,
-5860000,6.0097e-11,
-5920000,5.9919e-11,
-5980000,5.9342e-11,
-5950000,6.0333e-11,
-5890000,5.9575e-11,
-5830000,5.953e-11,
-5770000,6.0412e-11,
-5710000,5.968e-11,
-5650000,6.1911e-11,
-5590000,6.183e-11,
-5530000,6.1169e-11,
-5470000,6.2552e-11,
-5410000,6.3434e-11,
-5350000,6.3771e-11,
-5290000,6.4194e-11,
-5230000,6.5188e-11,
-5170000,6.4102e-11,
-5110000,6.5067e-11,
-5050000,6.535e-11,
-4990000,6.6632e-11,
-4930000,6.6863e-11,
-4870000,6.6973e-11,
-4810000,6.6901e-11,
-4750000,6.8629e-11,
-4690000,6.8344e-11,
-4630000,6.887e-11,
-4570000,6.9518e-11,
-4510000,7.117e-11,
-4450000,7.1848e-11,
-4390000,7.0634e-11,
-4330000,7.3181e-11,
-4270000,7.3638e-11,
-4210000,7.3031e-11,
-4150000,7.3702e-11,
-4090000,7.4454e-11,
-4030000,7.5493e-11,
-3970000,7.7656e-11,
-3910000,7.6979e-11,
-3850000,7.845e-11,
-3790000,7.9001e-11,
-3730000,7.9097e-11,
-3670000,7.9906e-11,
-3610000,8.1202e-11,
-3550000,8.1641e-11,
-3490000,8.3216e-11,
-3430000,8.2614e-11,
-3370000,8.3698e-11,
-3310000,8.4158e-11,
-3250000,8.4997e-11,
-3190000,8.5287e-11,
-3130000,8.6755e-11,
-3070000,8.71e-11,
-3010000,8.7761e-11,
-2950000,8.835e-11,
-2890000,9.039e-11,
-2830000,9.1426e-11,
-2770000,9.1794e-11,
-2710000,9.2809e-11,
-2650000,9.3038e-11,
-2590000,9.4847e-11,
-2530000,9.4534e-11,
-2470000,9.5668e-11,
-2410000,9.5013e-11,
-2350000,9.4001e-11,
-2290000,9.5702e-11,
-2230000,9.7385e-11,
-2170000,9.6027e-11,
-2110000,9.8055e-11,
-2050000,9.8031e-11,
-1990000,9.774e-11,
-1930000,9.771e-11,
-1870000,9.8448e-11,
-1810000,9.8349e-11,
-1750000,9.83e-11,
-1690000,9.8984e-11,
-1630000,1.0021e-10,
-1570000,9.8878e-11,
-1510000,9.9142e-11,
-1450000,9.8878e-11,
-1390000,9.8418e-11,
-1330000,9.9525e-11,
-1270000,9.9798e-11,
-1210000,9.8384e-11,
-1150000,9.8916e-11,
-1090000,9.9205e-11,
-1030000,1.0081e-10,
-970000,1.0178e-10,
-910000,1.0095e-10,
-850000,9.9908e-11,
-790000,9.7673e-11,
-730000,9.6343e-11,
-670000,9.5326e-11,
-610000,9.4127e-11,
-550000,9.4172e-11,
-490000,9.3375e-11,
-430000,9.2918e-11,
-370000,9.3044e-11,
-310000,9.0708e-11,
-250000,9.1944e-11,
-190000,9.0616e-11,
-130000,9.0982e-11,
-70000,9.0577e-11,
-10000,9.0374e-11,
50000,9.2416e-11,
110000,9.2571e-11,
170000,9.1526e-11,
230000,9.1456e-11,
290000,9.2064e-11,
350000,9.1544e-11,
410000,9.0055e-11,
470000,8.9799e-11,
