General parameters:
Start time: 2023              8             21             13             54      33.928421
Finish time: 2023              8             21             14              0      29.484346
Dwell time (ms): 3000.000000
Source chamber pressure: 2.00e+3
Differential chamber pressure: 7.98e-07
Sample chamber pressure: 3.83e-08
Example position (nm): -3942956.953581,53669.876506,-1000000.000000
Rotation angle (udeg): 52499605.000000
==========
Instrument status: 
0:Data Directory:/icon/data/2023_08_MoS2_5um_hbn_sub/
1:Sample:MoS2
2:Comments:no
3:PinholePlate:#C13
4:z_Zero:4200
5:Operator:djw77/nav31/kw570
==========
zscan inputs: 
z_sep:50000
z_range:200000 -5000000
data_path:/icon/data/2023_08_MoS2_5um_hbn_sub/
example_pos:-3942956.9536      53669.876506          -1000000
N_dwell:200
sampling_period:15
make_plots:0
m1:0.98976
m2:-0.0073571
==========
Detector params:
Sampling period (ms): 15.000000
N dwell: 200.000000
Filament current (A): 1.540000
Filament emission (mA): 1.748304
Solenoid current (A): NaN
Solenoid shim current (A): NaN
Lens params:
0  685
1  300
2  125
3      -0.002
4       -0.01
5       0.012
6         0.8
7         2.1
8         2.8
9  3000
10  1450
11         0.85
12   0
==========
Data:
z(nm),I(A)
200000,3.9663e-11,
100000,4.0674e-11,
0,3.9218e-11,
-100000,4.1164e-11,
-200000,3.9237e-11,
-300000,3.9542e-11,
-400000,4.1829e-11,
-500000,4.1833e-11,
-600000,4.1663e-11,
-700000,4.2422e-11,
-800000,4.3499e-11,
-900000,4.3391e-11,
-1000000,4.4552e-11,
-1100000,4.4757e-11,
-1200000,4.5564e-11,
-1300000,4.6177e-11,
-1400000,4.537e-11,
-1500000,4.5569e-11,
-1600000,4.6771e-11,
-1700000,4.6355e-11,
-1800000,4.5975e-11,
-1900000,4.6784e-11,
-2000000,4.5942e-11,
-2100000,4.4894e-11,
-2200000,4.6679e-11,
-2300000,4.5062e-11,
-2400000,4.5698e-11,
-2500000,4.4193e-11,
-2600000,4.4384e-11,
-2700000,4.2836e-11,
-2800000,4.3966e-11,
-2900000,4.2254e-11,
-3000000,4.2181e-11,
-3100000,4.1636e-11,
-3200000,4.1007e-11,
-3300000,4.0629e-11,
-3400000,4.0265e-11,
-3500000,3.9246e-11,
-3600000,3.841e-11,
-3700000,3.8556e-11,
-3800000,3.6467e-11,
-3900000,3.5667e-11,
-4000000,3.4998e-11,
-4100000,3.4993e-11,
-4200000,3.4161e-11,
-4300000,3.3572e-11,
-4400000,3.3986e-11,
-4500000,3.302e-11,
-4600000,3.1416e-11,
-4700000,3.2159e-11,
-4800000,3.0566e-11,
-4900000,3.0559e-11,
-5000000,3.0168e-11,
-4950000,2.9473e-11,
-4850000,3.128e-11,
-4750000,3.1159e-11,
-4650000,3.1716e-11,
-4550000,3.1989e-11,
-4450000,3.2778e-11,
-4350000,3.3609e-11,
-4250000,3.2626e-11,
-4150000,3.4605e-11,
-4050000,3.579e-11,
-3950000,3.7372e-11,
-3850000,3.6642e-11,
-3750000,3.7024e-11,
-3650000,3.7961e-11,
-3550000,3.8552e-11,
-3450000,3.9267e-11,
-3350000,4.035e-11,
-3250000,4.1979e-11,
-3150000,4.0832e-11,
-3050000,4.2633e-11,
-2950000,4.3849e-11,
-2850000,4.3832e-11,
-2750000,4.3774e-11,
-2650000,4.5446e-11,
-2550000,4.5443e-11,
-2450000,4.5273e-11,
-2350000,4.5598e-11,
-2250000,4.6859e-11,
-2150000,4.6409e-11,
-2050000,4.5772e-11,
-1950000,4.6346e-11,
-1850000,4.7546e-11,
-1750000,4.6985e-11,
-1650000,4.6796e-11,
-1550000,4.6593e-11,
-1450000,4.5998e-11,
-1350000,4.6414e-11,
-1250000,4.5871e-11,
-1150000,4.4777e-11,
-1050000,4.5064e-11,
-950000,4.382e-11,
-850000,4.3815e-11,
-750000,4.3843e-11,
-650000,4.3212e-11,
-550000,4.2323e-11,
-450000,4.0557e-11,
-350000,4.0881e-11,
-250000,4.0139e-11,
-150000,4.0769e-11,
-50000,4.1858e-11,
50000,3.9172e-11,
150000,3.9562e-11,
