General parameters:
Start time: 2023              8             22             12             30      37.619429
Finish time: 2023              8             22             12             36      32.534456
Dwell time (ms): 3000.000000
Source chamber pressure: 2.00e+3
Differential chamber pressure: 7.97e-07
Sample chamber pressure: 3.84e-08
Example position (nm): -3488256.051774,251920.607103,-1000000.000000
Rotation angle (udeg): 84999790.000000
==========
Instrument status: 
0:Data Directory:/icon/data/2023_08_MoS2_5um_hbn_sub/
1:Sample:MoS2
2:Comments:no
3:PinholePlate:#C13
4:z_Zero:4200
5:Operator:djw77/nav31/kw570
==========
zscan inputs: 
z_sep:50000
z_range:200000 -5000000
data_path:/icon/data/2023_08_MoS2_5um_hbn_sub/
example_pos:-3488256.0518       251920.6071          -1000000
N_dwell:200
sampling_period:15
make_plots:0
m1:0.98976
m2:-0.0073571
==========
Detector params:
Sampling period (ms): 15.000000
N dwell: 200.000000
Filament current (A): 1.540000
Filament emission (mA): 1.739754
Solenoid current (A): NaN
Solenoid shim current (A): NaN
Lens params:
0  685
1  300
2  125
3      -0.002
4       -0.01
5       0.012
6         0.8
7         2.1
8         2.8
9  3000
10  1450
11         0.85
12   0
==========
Data:
z(nm),I(A)
200000,4.4296e-11,
100000,4.5422e-11,
0,4.4716e-11,
-100000,4.4212e-11,
-200000,4.5157e-11,
-300000,4.5287e-11,
-400000,4.7511e-11,
-500000,4.7788e-11,
-600000,4.7517e-11,
-700000,5.3755e-11,
-800000,6.5641e-11,
-900000,7.33e-11,
-1000000,8.6566e-11,
-1100000,7.8809e-11,
-1200000,5.8287e-11,
-1300000,5.2425e-11,
-1400000,5.058e-11,
-1500000,4.913e-11,
-1600000,5.0373e-11,
-1700000,5.1873e-11,
-1800000,5.1683e-11,
-1900000,5.158e-11,
-2000000,5.2205e-11,
-2100000,5.2175e-11,
-2200000,5.3588e-11,
-2300000,5.3379e-11,
-2400000,5.4004e-11,
-2500000,5.4997e-11,
-2600000,5.4443e-11,
-2700000,5.2966e-11,
-2800000,4.9106e-11,
-2900000,4.7523e-11,
-3000000,4.6893e-11,
-3100000,4.5182e-11,
-3200000,4.6965e-11,
-3300000,4.8271e-11,
-3400000,5.129e-11,
-3500000,5.2197e-11,
-3600000,5.0166e-11,
-3700000,4.7986e-11,
-3800000,4.4256e-11,
-3900000,3.9783e-11,
-4000000,3.6448e-11,
-4100000,3.4102e-11,
-4200000,3.2375e-11,
-4300000,3.1723e-11,
-4400000,3.0341e-11,
-4500000,2.9926e-11,
-4600000,2.9851e-11,
-4700000,2.8981e-11,
-4800000,2.8848e-11,
-4900000,2.9219e-11,
-5000000,2.918e-11,
-4950000,2.8081e-11,
-4850000,2.8338e-11,
-4750000,2.9671e-11,
-4650000,2.9413e-11,
-4550000,2.9579e-11,
-4450000,3.1056e-11,
-4350000,3.0336e-11,
-4250000,3.1597e-11,
-4150000,3.2576e-11,
-4050000,3.4723e-11,
-3950000,3.7308e-11,
-3850000,4.1392e-11,
-3750000,4.6448e-11,
-3650000,5.0808e-11,
-3550000,5.3503e-11,
-3450000,5.3692e-11,
-3350000,5.1105e-11,
-3250000,4.8153e-11,
-3150000,4.643e-11,
-3050000,4.5308e-11,
-2950000,4.5283e-11,
-2850000,4.799e-11,
-2750000,5.1294e-11,
-2650000,5.4381e-11,
-2550000,5.7122e-11,
-2450000,5.789e-11,
-2350000,5.5966e-11,
-2250000,5.6104e-11,
-2150000,5.3311e-11,
-2050000,5.4428e-11,
-1950000,5.4307e-11,
-1850000,5.3851e-11,
-1750000,5.3773e-11,
-1650000,5.249e-11,
-1550000,5.0617e-11,
-1450000,5.1888e-11,
-1350000,5.4586e-11,
-1250000,5.7518e-11,
-1150000,7.3348e-11,
-1050000,9.6399e-11,
-950000,9.5722e-11,
-850000,8.3191e-11,
-750000,6.1046e-11,
-650000,5.161e-11,
-550000,4.7205e-11,
-450000,4.7884e-11,
-350000,4.5846e-11,
-250000,4.524e-11,
-150000,4.4803e-11,
-50000,4.3207e-11,
50000,4.4229e-11,
150000,4.5275e-11,
