General parameters:
Start time: 2023              8             19             14             32      53.037867
Finish time: 2023              8             19             14             38      50.310475
Dwell time (ms): 3000.000000
Source chamber pressure: 2.00e+3
Differential chamber pressure: 7.96e-07
Sample chamber pressure: 3.88e-08
Example position (nm): -3865650.552634,103777.017263,-1000000.000000
Rotation angle (udeg): 62499955.000000
==========
Instrument status: 
0:Data Directory:/icon/data/2023_08_MoS2_5um_hbn_sub/
1:Sample:MoS2
2:Comments:no
3:PinholePlate:#C13
4:z_Zero:4200
5:Operator:djw77/nav31/kw570
==========
zscan inputs: 
z_sep:50000
z_range:200000 -5000000
data_path:/icon/data/2023_08_MoS2_5um_hbn_sub/
example_pos:-3865650.5526      103777.01726          -1000000
N_dwell:200
sampling_period:15
make_plots:0
m1:0.98976
m2:-0.0073571
==========
Detector params:
Sampling period (ms): 15.000000
N dwell: 200.000000
Filament current (A): 1.540000
Filament emission (mA): 1.682298
Solenoid current (A): NaN
Solenoid shim current (A): NaN
Lens params:
0  685
1  300
2  125
3      -0.002
4       -0.01
5       0.012
6         0.8
7         2.1
8         2.8
9  3000
10  1450
11         0.85
12   0
==========
Data:
z(nm),I(A)
200000,7.8969e-11,
100000,7.7455e-11,
0,7.0038e-11,
-100000,6.3294e-11,
-200000,5.8424e-11,
-300000,5.393e-11,
-400000,4.997e-11,
-500000,4.8745e-11,
-600000,5.382e-11,
-700000,6.3287e-11,
-800000,8.7202e-11,
-900000,1.2365e-10,
-1000000,1.4032e-10,
-1100000,1.3614e-10,
-1200000,1.1521e-10,
-1300000,8.7835e-11,
-1400000,7.0384e-11,
-1500000,6.3479e-11,
-1600000,6.4268e-11,
-1700000,7.118e-11,
-1800000,8.5196e-11,
-1900000,8.9541e-11,
-2000000,8.6127e-11,
-2100000,7.6346e-11,
-2200000,6.1533e-11,
-2300000,5.252e-11,
-2400000,5.2173e-11,
-2500000,5.2571e-11,
-2600000,6.1389e-11,
-2700000,7.2889e-11,
-2800000,8.2324e-11,
-2900000,8.6316e-11,
-3000000,7.7607e-11,
-3100000,6.6779e-11,
-3200000,5.4707e-11,
-3300000,4.6873e-11,
-3400000,4.2374e-11,
-3500000,4.0667e-11,
-3600000,3.8566e-11,
-3700000,3.7235e-11,
-3800000,3.7643e-11,
-3900000,3.7718e-11,
-4000000,3.6013e-11,
-4100000,3.4308e-11,
-4200000,3.3791e-11,
-4300000,3.2187e-11,
-4400000,3.1472e-11,
-4500000,2.8657e-11,
-4600000,2.8381e-11,
-4700000,2.7117e-11,
-4800000,2.5547e-11,
-4900000,2.536e-11,
-5000000,2.5542e-11,
-4950000,2.4549e-11,
-4850000,2.5538e-11,
-4750000,2.6727e-11,
-4650000,2.7181e-11,
-4550000,2.8475e-11,
-4450000,2.9931e-11,
-4350000,3.1332e-11,
-4250000,3.297e-11,
-4150000,3.3709e-11,
-4050000,3.4763e-11,
-3950000,3.6366e-11,
-3850000,3.7051e-11,
-3750000,3.7076e-11,
-3650000,3.8229e-11,
-3550000,3.902e-11,
-3450000,3.9401e-11,
-3350000,4.4928e-11,
-3250000,5.0599e-11,
-3150000,5.9787e-11,
-3050000,7.2627e-11,
-2950000,8.1773e-11,
-2850000,8.6587e-11,
-2750000,7.9386e-11,
-2650000,6.8727e-11,
-2550000,5.9613e-11,
-2450000,5.198e-11,
-2350000,5.09e-11,
-2250000,5.5418e-11,
-2150000,6.7475e-11,
-2050000,7.9465e-11,
-1950000,8.8736e-11,
-1850000,8.8239e-11,
-1750000,8.015e-11,
-1650000,6.7535e-11,
-1550000,6.3617e-11,
-1450000,6.4859e-11,
-1350000,7.5639e-11,
-1250000,9.6933e-11,
-1150000,1.2931e-10,
-1050000,1.4388e-10,
-950000,1.3894e-10,
-850000,1.1268e-10,
-750000,7.6981e-11,
-650000,5.7498e-11,
-550000,4.9631e-11,
-450000,5.0072e-11,
-350000,5.0827e-11,
-250000,5.5584e-11,
-150000,5.9398e-11,
-50000,6.5557e-11,
50000,7.1727e-11,
150000,7.7749e-11,
