General parameters:
Start time: 2023              8             21             23             46      15.292094
Finish time: 2023              8             21             23             52      10.839349
Dwell time (ms): 3000.000000
Source chamber pressure: 2.00e+3
Differential chamber pressure: 7.98e-07
Sample chamber pressure: 3.79e-08
Example position (nm): -2866061.272107,182482.870901,-1000000.000000
Rotation angle (udeg): 132500340.000000
==========
Instrument status: 
0:Data Directory:/icon/data/2023_08_MoS2_5um_hbn_sub/
1:Sample:MoS2
2:Comments:no
3:PinholePlate:#C13
4:z_Zero:4200
5:Operator:djw77/nav31/kw570
==========
zscan inputs: 
z_sep:50000
z_range:200000 -5000000
data_path:/icon/data/2023_08_MoS2_5um_hbn_sub/
example_pos:-2866061.2721       182482.8709          -1000000
N_dwell:200
sampling_period:15
make_plots:0
m1:0.98976
m2:-0.0073571
==========
Detector params:
Sampling period (ms): 15.000000
N dwell: 200.000000
Filament current (A): 1.540000
Filament emission (mA): 1.747962
Solenoid current (A): NaN
Solenoid shim current (A): NaN
Lens params:
0  685
1  300
2  125
3      -0.002
4       -0.01
5       0.012
6         0.8
7         2.1
8         2.8
9  3000
10  1450
11         0.85
12   0
==========
Data:
z(nm),I(A)
200000,4.5114e-11,
100000,4.54e-11,
0,4.5672e-11,
-100000,4.6567e-11,
-200000,4.6168e-11,
-300000,4.5859e-11,
-400000,4.6442e-11,
-500000,4.5645e-11,
-600000,4.6003e-11,
-700000,4.6899e-11,
-800000,4.6756e-11,
-900000,4.6302e-11,
-1000000,4.7839e-11,
-1100000,4.6424e-11,
-1200000,4.7596e-11,
-1300000,4.8089e-11,
-1400000,4.7233e-11,
-1500000,4.8222e-11,
-1600000,4.7581e-11,
-1700000,4.6785e-11,
-1800000,4.7339e-11,
-1900000,4.794e-11,
-2000000,4.7446e-11,
-2100000,4.6455e-11,
-2200000,4.6068e-11,
-2300000,4.5866e-11,
-2400000,4.6235e-11,
-2500000,4.5286e-11,
-2600000,4.4272e-11,
-2700000,4.3899e-11,
-2800000,4.3285e-11,
-2900000,4.2197e-11,
-3000000,4.2533e-11,
-3100000,4.1408e-11,
-3200000,4.0966e-11,
-3300000,4.0334e-11,
-3400000,3.9928e-11,
-3500000,3.903e-11,
-3600000,3.8165e-11,
-3700000,3.692e-11,
-3800000,3.6826e-11,
-3900000,3.5807e-11,
-4000000,3.5653e-11,
-4100000,3.5441e-11,
-4200000,3.4434e-11,
-4300000,3.3609e-11,
-4400000,3.3364e-11,
-4500000,3.2178e-11,
-4600000,3.1398e-11,
-4700000,3.0928e-11,
-4800000,2.999e-11,
-4900000,3.0445e-11,
-5000000,2.9412e-11,
-4950000,2.9238e-11,
-4850000,2.9583e-11,
-4750000,3.1539e-11,
-4650000,3.1911e-11,
-4550000,3.196e-11,
-4450000,3.2084e-11,
-4350000,3.3068e-11,
-4250000,3.3546e-11,
-4150000,3.5416e-11,
-4050000,3.5616e-11,
-3950000,3.6277e-11,
-3850000,3.5734e-11,
-3750000,3.7153e-11,
-3650000,3.8303e-11,
-3550000,3.8292e-11,
-3450000,3.8498e-11,
-3350000,3.9814e-11,
-3250000,4.1231e-11,
-3150000,4.118e-11,
-3050000,4.2403e-11,
-2950000,4.2252e-11,
-2850000,4.2346e-11,
-2750000,4.2307e-11,
-2650000,4.453e-11,
-2550000,4.4891e-11,
-2450000,4.5277e-11,
-2350000,4.5487e-11,
-2250000,4.5893e-11,
-2150000,4.6619e-11,
-2050000,4.6912e-11,
-1950000,4.5586e-11,
-1850000,4.7261e-11,
-1750000,4.7337e-11,
-1650000,4.8075e-11,
-1550000,4.753e-11,
-1450000,4.7454e-11,
-1350000,4.7432e-11,
-1250000,4.7366e-11,
-1150000,4.6445e-11,
-1050000,4.689e-11,
-950000,4.6554e-11,
-850000,4.5819e-11,
-750000,4.6219e-11,
-650000,4.6338e-11,
-550000,4.7144e-11,
-450000,4.5451e-11,
-350000,4.558e-11,
-250000,4.6346e-11,
-150000,4.5578e-11,
-50000,4.5954e-11,
50000,4.4635e-11,
150000,4.4956e-11,
