General parameters:
Start time: 2023              8             29              1             32      35.301236
Finish time: 2023              8             29              1             39      38.047229
Dwell time (ms): 3000.000000
Source chamber pressure: 2.00e+3
Differential chamber pressure: 6.08e-07
Sample chamber pressure: 3.58e-08
Example position (nm): -4171993.208623,-163024.373495,-1000000.000000
Rotation angle (udeg): 35000370.000000
==========
Instrument status: 
0:Data Directory:/icon/data/2023_08_MoS2_5um_hbn_sub/
1:Sample:MoS2
2:Comments:no
3:PinholePlate:#C13
4:z_Zero:4200
5:Operator:djw77/nav31/kw570
==========
zscan inputs: 
z_sep:50000
z_range:200000 -6000000
data_path:/icon/data/2023_08_MoS2_5um_hbn_sub/
example_pos:-4171993.2086      -163024.3735          -1000000
N_dwell:200
sampling_period:15
make_plots:1
m1:0.98976
m2:-0.0073571
==========
Detector params:
Sampling period (ms): 15.000000
N dwell: 200.000000
Filament current (A): 1.540000
Filament emission (mA): 1.914858
Solenoid current (A): NaN
Solenoid shim current (A): NaN
Lens params:
0  685
1  300
2  125
3      -0.002
4       -0.01
5       0.012
6         0.8
7         2.1
8         2.8
9  3000
10  1450
11         0.85
12   0
==========
Data:
z(nm),I(A)
200000,4.848e-11,
100000,4.827e-11,
0,4.7915e-11,
-100000,4.899e-11,
-200000,4.8596e-11,
-300000,4.8861e-11,
-400000,5.0839e-11,
-500000,5.1539e-11,
-600000,5.1279e-11,
-700000,5.3699e-11,
-800000,5.3921e-11,
-900000,5.4748e-11,
-1000000,5.3684e-11,
-1100000,5.5248e-11,
-1200000,5.6261e-11,
-1300000,5.7364e-11,
-1400000,5.6397e-11,
-1500000,5.6787e-11,
-1600000,5.6963e-11,
-1700000,5.7421e-11,
-1800000,5.7558e-11,
-1900000,5.6859e-11,
-2000000,5.7646e-11,
-2100000,5.752e-11,
-2200000,5.7074e-11,
-2300000,5.6651e-11,
-2400000,5.5685e-11,
-2500000,5.4657e-11,
-2600000,5.4552e-11,
-2700000,5.4875e-11,
-2800000,5.4531e-11,
-2900000,5.3851e-11,
-3000000,5.2052e-11,
-3100000,5.2076e-11,
-3200000,5.0589e-11,
-3300000,4.9928e-11,
-3400000,4.9042e-11,
-3500000,4.9005e-11,
-3600000,4.7336e-11,
-3700000,4.6365e-11,
-3800000,4.6634e-11,
-3900000,4.4794e-11,
-4000000,4.4255e-11,
-4100000,4.3714e-11,
-4200000,4.2009e-11,
-4300000,4.2126e-11,
-4400000,4.1537e-11,
-4500000,4.1147e-11,
-4600000,3.9304e-11,
-4700000,3.9291e-11,
-4800000,3.8856e-11,
-4900000,3.8055e-11,
-5000000,3.7293e-11,
-5100000,3.6998e-11,
-5200000,3.6289e-11,
-5300000,3.5567e-11,
-5400000,3.539e-11,
-5500000,3.4201e-11,
-5600000,3.4398e-11,
-5700000,3.3573e-11,
-5800000,3.2981e-11,
-5900000,3.4285e-11,
-6000000,3.2689e-11,
-5950000,3.2624e-11,
-5850000,3.3217e-11,
-5750000,3.3497e-11,
-5650000,3.4645e-11,
-5550000,3.4693e-11,
-5450000,3.5537e-11,
-5350000,3.5621e-11,
-5250000,3.62e-11,
-5150000,3.6126e-11,
-5050000,3.6851e-11,
-4950000,3.7569e-11,
-4850000,3.8282e-11,
-4750000,3.958e-11,
-4650000,3.9873e-11,
-4550000,4.0283e-11,
-4450000,4.135e-11,
-4350000,4.2642e-11,
-4250000,4.2714e-11,
-4150000,4.3091e-11,
-4050000,4.345e-11,
-3950000,4.4232e-11,
-3850000,4.5556e-11,
-3750000,4.635e-11,
-3650000,4.6894e-11,
-3550000,4.8448e-11,
-3450000,4.9765e-11,
-3350000,4.9829e-11,
-3250000,5.0381e-11,
-3150000,5.1174e-11,
-3050000,5.1572e-11,
-2950000,5.3436e-11,
-2850000,5.4186e-11,
-2750000,5.3658e-11,
-2650000,5.4684e-11,
-2550000,5.4314e-11,
-2450000,5.6068e-11,
-2350000,5.7738e-11,
-2250000,5.5891e-11,
-2150000,5.682e-11,
-2050000,5.7891e-11,
-1950000,5.8017e-11,
-1850000,5.7629e-11,
-1750000,5.6355e-11,
-1650000,5.7147e-11,
-1550000,5.7491e-11,
-1450000,5.634e-11,
-1350000,5.6173e-11,
-1250000,5.648e-11,
-1150000,5.6474e-11,
-1050000,5.605e-11,
-950000,5.5895e-11,
-850000,5.5314e-11,
-750000,5.3084e-11,
-650000,5.2556e-11,
-550000,5.2544e-11,
-450000,5.1205e-11,
-350000,5.0717e-11,
-250000,5.1523e-11,
-150000,5.0571e-11,
-50000,4.9927e-11,
50000,4.8568e-11,
150000,4.9709e-11,
