General parameters:
Start time: 2023              8             19             15             27      24.487867
Finish time: 2023              8             19             15             33      28.737756
Dwell time (ms): 3000.000000
Source chamber pressure: 2.00e+3
Differential chamber pressure: 7.96e-07
Sample chamber pressure: 3.84e-08
Example position (nm): -3546738.419852,263302.542392,-1000000.000000
Rotation angle (udeg): 84999670.000000
==========
Instrument status: 
0:Data Directory:/icon/data/2023_08_MoS2_5um_hbn_sub/
1:Sample:MoS2
2:Comments:no
3:PinholePlate:#C13
4:z_Zero:4200
5:Operator:djw77/nav31/kw570
==========
zscan inputs: 
z_sep:50000
z_range:200000 -5000000
data_path:/icon/data/2023_08_MoS2_5um_hbn_sub/
example_pos:-3546738.4199      263302.54239          -1000000
N_dwell:200
sampling_period:15
make_plots:0
m1:0.98976
m2:-0.0073571
==========
Detector params:
Sampling period (ms): 15.000000
N dwell: 200.000000
Filament current (A): 1.540000
Filament emission (mA): 1.685718
Solenoid current (A): NaN
Solenoid shim current (A): NaN
Lens params:
0  685
1  300
2  125
3      -0.002
4       -0.01
5       0.012
6         0.8
7         2.1
8         2.8
9  3000
10  1450
11         0.85
12   0
==========
Data:
z(nm),I(A)
200000,8.3259e-11,
100000,6.878e-11,
0,6.2071e-11,
-100000,6.1073e-11,
-200000,5.6154e-11,
-300000,5.2323e-11,
-400000,5.0132e-11,
-500000,4.8828e-11,
-600000,5.3139e-11,
-700000,6.5076e-11,
-800000,9.2989e-11,
-900000,1.3157e-10,
-1000000,1.4164e-10,
-1100000,1.2219e-10,
-1200000,8.193e-11,
-1300000,6.3891e-11,
-1400000,5.4683e-11,
-1500000,5.2306e-11,
-1600000,4.9503e-11,
-1700000,4.9863e-11,
-1800000,5.0491e-11,
-1900000,4.955e-11,
-2000000,4.8991e-11,
-2100000,4.8518e-11,
-2200000,4.8051e-11,
-2300000,5.025e-11,
-2400000,5.0434e-11,
-2500000,5.1832e-11,
-2600000,5.108e-11,
-2700000,4.8099e-11,
-2800000,4.4528e-11,
-2900000,4.2598e-11,
-3000000,4.1421e-11,
-3100000,4.1324e-11,
-3200000,4.366e-11,
-3300000,4.5246e-11,
-3400000,4.721e-11,
-3500000,4.779e-11,
-3600000,4.6667e-11,
-3700000,4.5648e-11,
-3800000,4.0779e-11,
-3900000,3.6912e-11,
-4000000,3.3522e-11,
-4100000,3.139e-11,
-4200000,3.0025e-11,
-4300000,2.9757e-11,
-4400000,2.795e-11,
-4500000,2.8339e-11,
-4600000,2.7034e-11,
-4700000,2.6961e-11,
-4800000,2.5823e-11,
-4900000,2.5987e-11,
-5000000,2.5475e-11,
-4950000,2.5955e-11,
-4850000,2.6643e-11,
-4750000,2.6984e-11,
-4650000,2.7535e-11,
-4550000,2.6621e-11,
-4450000,2.86e-11,
-4350000,2.8272e-11,
-4250000,2.8696e-11,
-4150000,2.9943e-11,
-4050000,3.1942e-11,
-3950000,3.3976e-11,
-3850000,3.836e-11,
-3750000,4.102e-11,
-3650000,4.5574e-11,
-3550000,4.783e-11,
-3450000,4.7338e-11,
-3350000,4.5918e-11,
-3250000,4.441e-11,
-3150000,4.2716e-11,
-3050000,4.1719e-11,
-2950000,4.1869e-11,
-2850000,4.3831e-11,
-2750000,4.6232e-11,
-2650000,4.9625e-11,
-2550000,5.088e-11,
-2450000,5.292e-11,
-2350000,5.1355e-11,
-2250000,4.9289e-11,
-2150000,4.8271e-11,
-2050000,4.8361e-11,
-1950000,4.9284e-11,
-1850000,5.0438e-11,
-1750000,5.019e-11,
-1650000,4.9637e-11,
-1550000,5.1508e-11,
-1450000,5.4402e-11,
-1350000,6.0184e-11,
-1250000,6.9552e-11,
-1150000,9.9784e-11,
-1050000,1.3546e-10,
-950000,1.4266e-10,
-850000,1.2299e-10,
-750000,8.0888e-11,
-650000,5.8795e-11,
-550000,5.1202e-11,
-450000,4.9414e-11,
-350000,5.0764e-11,
-250000,5.536e-11,
-150000,5.7941e-11,
-50000,6.1658e-11,
50000,6.387e-11,
150000,7.2185e-11,
