General parameters:
Start time: 2023              8             19             14             20      46.867832
Finish time: 2023              8             19             14             26      45.415755
Dwell time (ms): 3000.000000
Source chamber pressure: 2.00e+3
Differential chamber pressure: 7.96e-07
Sample chamber pressure: 3.87e-08
Example position (nm): -3926433.596689,52183.573083,-1000000.000000
Rotation angle (udeg): 57499680.000000
==========
Instrument status: 
0:Data Directory:/icon/data/2023_08_MoS2_5um_hbn_sub/
1:Sample:MoS2
2:Comments:no
3:PinholePlate:#C13
4:z_Zero:4200
5:Operator:djw77/nav31/kw570
==========
zscan inputs: 
z_sep:50000
z_range:200000 -5000000
data_path:/icon/data/2023_08_MoS2_5um_hbn_sub/
example_pos:-3926433.5967      52183.573083          -1000000
N_dwell:200
sampling_period:15
make_plots:0
m1:0.98976
m2:-0.0073571
==========
Detector params:
Sampling period (ms): 15.000000
N dwell: 200.000000
Filament current (A): 1.540000
Filament emission (mA): 1.681956
Solenoid current (A): NaN
Solenoid shim current (A): NaN
Lens params:
0  685
1  300
2  125
3      -0.002
4       -0.01
5       0.012
6         0.8
7         2.1
8         2.8
9  3000
10  1450
11         0.85
12   0
==========
Data:
z(nm),I(A)
200000,4.8001e-11,
100000,4.9023e-11,
0,5.0124e-11,
-100000,4.9947e-11,
-200000,4.8433e-11,
-300000,4.6296e-11,
-400000,4.769e-11,
-500000,4.7117e-11,
-600000,5.038e-11,
-700000,5.746e-11,
-800000,7.6363e-11,
-900000,1.0512e-10,
-1000000,1.0905e-10,
-1100000,1.015e-10,
-1200000,9.1877e-11,
-1300000,7.4837e-11,
-1400000,6.7499e-11,
-1500000,6.179e-11,
-1600000,5.9152e-11,
-1700000,6.0366e-11,
-1800000,6.5855e-11,
-1900000,6.8944e-11,
-2000000,6.5685e-11,
-2100000,6.0314e-11,
-2200000,5.411e-11,
-2300000,5.0433e-11,
-2400000,4.7715e-11,
-2500000,4.7782e-11,
-2600000,4.8675e-11,
-2700000,5.2181e-11,
-2800000,5.3377e-11,
-2900000,5.3324e-11,
-3000000,5.0909e-11,
-3100000,4.7733e-11,
-3200000,4.5312e-11,
-3300000,4.2501e-11,
-3400000,4.1995e-11,
-3500000,4.0736e-11,
-3600000,3.99e-11,
-3700000,3.8054e-11,
-3800000,3.6626e-11,
-3900000,3.4235e-11,
-4000000,3.2508e-11,
-4100000,3.1604e-11,
-4200000,3.0722e-11,
-4300000,3.0026e-11,
-4400000,2.9643e-11,
-4500000,2.8622e-11,
-4600000,2.8025e-11,
-4700000,2.8331e-11,
-4800000,2.8109e-11,
-4900000,2.8057e-11,
-5000000,2.6597e-11,
-4950000,2.6705e-11,
-4850000,2.7682e-11,
-4750000,2.7347e-11,
-4650000,2.8877e-11,
-4550000,2.8274e-11,
-4450000,2.8564e-11,
-4350000,2.9426e-11,
-4250000,2.9177e-11,
-4150000,3.0919e-11,
-4050000,3.2486e-11,
-3950000,3.333e-11,
-3850000,3.5403e-11,
-3750000,3.7141e-11,
-3650000,3.9036e-11,
-3550000,3.9343e-11,
-3450000,4.0527e-11,
-3350000,4.1504e-11,
-3250000,4.3998e-11,
-3150000,4.7417e-11,
-3050000,4.8709e-11,
-2950000,5.2349e-11,
-2850000,5.3446e-11,
-2750000,5.2724e-11,
-2650000,5.0851e-11,
-2550000,5.023e-11,
-2450000,4.8066e-11,
-2350000,4.9565e-11,
-2250000,5.0762e-11,
-2150000,5.6379e-11,
-2050000,6.5715e-11,
-1950000,6.8004e-11,
-1850000,6.9363e-11,
-1750000,6.5096e-11,
-1650000,6.0817e-11,
-1550000,6.0254e-11,
-1450000,6.3533e-11,
-1350000,7.4197e-11,
-1250000,8.4445e-11,
-1150000,1.0381e-10,
-1050000,1.1322e-10,
-950000,1.1857e-10,
-850000,9.6099e-11,
-750000,6.762e-11,
-650000,5.2086e-11,
-550000,4.809e-11,
-450000,4.8326e-11,
-350000,4.6547e-11,
-250000,4.7415e-11,
-150000,4.8577e-11,
-50000,4.9656e-11,
50000,5.0084e-11,
150000,4.8673e-11,
