General parameters:
Start time: 2023              8             17             17              6      30.806202
Finish time: 2023              8             17             17             14      13.628298
Dwell time (ms): 3750.000000
Source chamber pressure: 2.00e+3
Differential chamber pressure: 7.90e-07
Sample chamber pressure: 3.84e-08
Example position (nm): -3463000.000000,296000.000000,-1000000.000000
Rotation angle (udeg): 90000210.000000
==========
Instrument status: 
0:Data Directory:/icon/data/2023_08_MoS2_5um_hbn_sub/
1:Sample:MoS2
2:Comments:no
3:PinholePlate:#C13
4:z_Zero:4200
5:Operator:djw77/nav31/kw570
==========
zscan inputs: 
z_sep:50000
z_range:500000 -5000000
data_path:/icon/data/2023_08_MoS2_5um_hbn_sub/
example_pos:-3463000   296000 -1000000
N_dwell:250
sampling_period:15
make_plots:1
m1:0.98976
m2:-0.0073571
==========
Detector params:
Sampling period (ms): 15.000000
N dwell: 250.000000
Filament current (A): 1.540000
Filament emission (mA): 1.650834
Solenoid current (A): NaN
Solenoid shim current (A): NaN
Lens params:
0  685
1  300
2  125
3      -0.002
4       -0.01
5       0.012
6         0.8
7         2.1
8         2.8
9  3000
10  1450
11         0.85
12   0
==========
Data:
z(nm),I(A)
500000,4.1895e-11,
400000,4.4251e-11,
300000,4.6786e-11,
200000,5.0067e-11,
100000,4.9582e-11,
0,4.9346e-11,
-100000,5.046e-11,
-200000,4.8097e-11,
-300000,4.7954e-11,
-400000,4.7923e-11,
-500000,4.8954e-11,
-600000,5.0626e-11,
-700000,5.7204e-11,
-800000,7.322e-11,
-900000,8.8821e-11,
-1000000,9.3084e-11,
-1100000,8.2839e-11,
-1200000,6.8734e-11,
-1300000,5.7967e-11,
-1400000,5.2978e-11,
-1500000,5.1014e-11,
-1600000,4.8389e-11,
-1700000,4.613e-11,
-1800000,4.5107e-11,
-1900000,4.4073e-11,
-2000000,4.3087e-11,
-2100000,4.2771e-11,
-2200000,4.3457e-11,
-2300000,4.5853e-11,
-2400000,4.8778e-11,
-2500000,4.9946e-11,
-2600000,5.0809e-11,
-2700000,4.7337e-11,
-2800000,4.3218e-11,
-2900000,3.8309e-11,
-3000000,3.6319e-11,
-3100000,3.5218e-11,
-3200000,3.3616e-11,
-3300000,3.4722e-11,
-3400000,3.391e-11,
-3500000,3.3232e-11,
-3600000,3.362e-11,
-3700000,3.2096e-11,
-3800000,3.1994e-11,
-3900000,2.9627e-11,
-4000000,2.8472e-11,
-4100000,2.6786e-11,
-4200000,2.6642e-11,
-4300000,2.5879e-11,
-4400000,2.5528e-11,
-4500000,2.4343e-11,
-4600000,2.4294e-11,
-4700000,2.401e-11,
-4800000,2.3132e-11,
-4900000,2.2252e-11,
-5000000,2.1915e-11,
-4950000,2.2222e-11,
-4850000,2.2758e-11,
-4750000,2.3148e-11,
-4650000,2.3876e-11,
-4550000,2.4076e-11,
-4450000,2.5272e-11,
-4350000,2.5361e-11,
-4250000,2.5819e-11,
-4150000,2.7207e-11,
-4050000,2.8153e-11,
-3950000,2.897e-11,
-3850000,2.967e-11,
-3750000,3.1696e-11,
-3650000,3.3195e-11,
-3550000,3.2866e-11,
-3450000,3.3627e-11,
-3350000,3.473e-11,
-3250000,3.4473e-11,
-3150000,3.495e-11,
-3050000,3.5668e-11,
-2950000,3.6426e-11,
-2850000,4.0665e-11,
-2750000,4.5796e-11,
-2650000,4.9354e-11,
-2550000,5.1238e-11,
-2450000,5.1006e-11,
-2350000,4.8619e-11,
-2250000,4.5855e-11,
-2150000,4.3567e-11,
-2050000,4.2884e-11,
-1950000,4.3118e-11,
-1850000,4.4197e-11,
-1750000,4.4231e-11,
-1650000,4.671e-11,
-1550000,4.8054e-11,
-1450000,5.1754e-11,
-1350000,5.5289e-11,
-1250000,6.1684e-11,
-1150000,7.7123e-11,
-1050000,9.0592e-11,
-950000,9.5839e-11,
-850000,8.5308e-11,
-750000,6.7269e-11,
-650000,5.4118e-11,
-550000,4.9791e-11,
-450000,4.7928e-11,
-350000,4.689e-11,
-250000,4.699e-11,
-150000,4.9299e-11,
-50000,4.9577e-11,
50000,4.8963e-11,
150000,5.0144e-11,
250000,4.8853e-11,
350000,4.5943e-11,
450000,4.3172e-11,
