General parameters:
Start time: 2023              8             18             19             45      19.353724
Finish time: 2023              8             18             19             51      17.244444
Dwell time (ms): 3000.000000
Source chamber pressure: 2.00e+3
Differential chamber pressure: 7.94e-07
Sample chamber pressure: 3.83e-08
Example position (nm): -3051925.749497,255843.364316,-1000000.000000
Rotation angle (udeg): 115000170.000000
==========
Instrument status: 
0:Data Directory:/icon/data/2023_08_MoS2_5um_hbn_sub/
1:Sample:MoS2
2:Comments:no
3:PinholePlate:#C13
4:z_Zero:4200
5:Operator:djw77/nav31/kw570
==========
zscan inputs: 
z_sep:50000
z_range:200000 -5000000
data_path:/icon/data/2023_08_MoS2_5um_hbn_sub/
example_pos:-3051925.7495      255843.36432          -1000000
N_dwell:200
sampling_period:15
make_plots:0
m1:0.98976
m2:-0.0073571
==========
Detector params:
Sampling period (ms): 15.000000
N dwell: 200.000000
Filament current (A): 1.540000
Filament emission (mA): 1.668960
Solenoid current (A): NaN
Solenoid shim current (A): NaN
Lens params:
0  685
1  300
2  125
3      -0.002
4       -0.01
5       0.012
6         0.8
7         2.1
8         2.8
9  3000
10  1450
11         0.85
12   0
==========
Data:
z(nm),I(A)
200000,4.0488e-11,
100000,4.1055e-11,
0,4.1114e-11,
-100000,4.1861e-11,
-200000,4.0716e-11,
-300000,4.1311e-11,
-400000,4.1431e-11,
-500000,4.2419e-11,
-600000,4.2044e-11,
-700000,4.1863e-11,
-800000,4.2642e-11,
-900000,4.2913e-11,
-1000000,4.3394e-11,
-1100000,4.2461e-11,
-1200000,4.2787e-11,
-1300000,4.3835e-11,
-1400000,4.2578e-11,
-1500000,4.4098e-11,
-1600000,4.3072e-11,
-1700000,4.3898e-11,
-1800000,4.3525e-11,
-1900000,4.3344e-11,
-2000000,4.2953e-11,
-2100000,4.2051e-11,
-2200000,4.1871e-11,
-2300000,4.115e-11,
-2400000,4.0951e-11,
-2500000,4.0307e-11,
-2600000,4.0272e-11,
-2700000,4.0049e-11,
-2800000,3.8796e-11,
-2900000,3.8297e-11,
-3000000,3.8672e-11,
-3100000,3.704e-11,
-3200000,3.6447e-11,
-3300000,3.5542e-11,
-3400000,3.6022e-11,
-3500000,3.5429e-11,
-3600000,3.442e-11,
-3700000,3.3749e-11,
-3800000,3.338e-11,
-3900000,3.2476e-11,
-4000000,3.2545e-11,
-4100000,3.1437e-11,
-4200000,3.0416e-11,
-4300000,2.9553e-11,
-4400000,3.0135e-11,
-4500000,2.9886e-11,
-4600000,2.84e-11,
-4700000,2.8625e-11,
-4800000,2.7014e-11,
-4900000,2.7314e-11,
-5000000,2.6216e-11,
-4950000,2.7392e-11,
-4850000,2.7655e-11,
-4750000,2.715e-11,
-4650000,2.8905e-11,
-4550000,2.8417e-11,
-4450000,2.9229e-11,
-4350000,3.0208e-11,
-4250000,3.0467e-11,
-4150000,3.1509e-11,
-4050000,3.205e-11,
-3950000,3.3036e-11,
-3850000,3.2832e-11,
-3750000,3.3507e-11,
-3650000,3.3357e-11,
-3550000,3.5051e-11,
-3450000,3.5603e-11,
-3350000,3.6737e-11,
-3250000,3.7026e-11,
-3150000,3.6796e-11,
-3050000,3.7906e-11,
-2950000,3.7986e-11,
-2850000,3.9862e-11,
-2750000,4.0261e-11,
-2650000,3.9842e-11,
-2550000,4.0945e-11,
-2450000,4.1152e-11,
-2350000,4.0518e-11,
-2250000,4.1851e-11,
-2150000,4.216e-11,
-2050000,4.3124e-11,
-1950000,4.3126e-11,
-1850000,4.2951e-11,
-1750000,4.4005e-11,
-1650000,4.4314e-11,
-1550000,4.4209e-11,
-1450000,4.314e-11,
-1350000,4.2881e-11,
-1250000,4.3105e-11,
-1150000,4.2529e-11,
-1050000,4.2851e-11,
-950000,4.1925e-11,
-850000,4.2628e-11,
-750000,4.1726e-11,
-650000,4.0973e-11,
-550000,4.046e-11,
-450000,4.2194e-11,
-350000,4.178e-11,
-250000,4.0502e-11,
-150000,4.1396e-11,
-50000,4.0904e-11,
50000,4.0613e-11,
150000,4.1351e-11,
