General parameters:
Start time: 2023              8             21             22             33      43.999304
Finish time: 2023              8             21             22             39      42.424442
Dwell time (ms): 3000.000000
Source chamber pressure: 2.00e+3
Differential chamber pressure: 7.98e-07
Sample chamber pressure: 3.79e-08
Example position (nm): -3282974.290283,324057.695268,-1000000.000000
Rotation angle (udeg): 102499700.000000
==========
Instrument status: 
0:Data Directory:/icon/data/2023_08_MoS2_5um_hbn_sub/
1:Sample:MoS2
2:Comments:no
3:PinholePlate:#C13
4:z_Zero:4200
5:Operator:djw77/nav31/kw570
==========
zscan inputs: 
z_sep:50000
z_range:200000 -5000000
data_path:/icon/data/2023_08_MoS2_5um_hbn_sub/
example_pos:-3282974.2903      324057.69527          -1000000
N_dwell:200
sampling_period:15
make_plots:0
m1:0.98976
m2:-0.0073571
==========
Detector params:
Sampling period (ms): 15.000000
N dwell: 200.000000
Filament current (A): 1.540000
Filament emission (mA): 1.739754
Solenoid current (A): NaN
Solenoid shim current (A): NaN
Lens params:
0  685
1  300
2  125
3      -0.002
4       -0.01
5       0.012
6         0.8
7         2.1
8         2.8
9  3000
10  1450
11         0.85
12   0
==========
Data:
z(nm),I(A)
200000,4.7775e-11,
100000,4.9326e-11,
0,4.8617e-11,
-100000,4.9753e-11,
-200000,5.0802e-11,
-300000,5.1836e-11,
-400000,5.0909e-11,
-500000,5.5652e-11,
-600000,6.0535e-11,
-700000,7.2849e-11,
-800000,9.5522e-11,
-900000,1.1301e-10,
-1000000,1.1866e-10,
-1100000,9.9853e-11,
-1200000,8.0472e-11,
-1300000,6.8238e-11,
-1400000,6.1949e-11,
-1500000,6e-11,
-1600000,6.0104e-11,
-1700000,6.2847e-11,
-1800000,6.0334e-11,
-1900000,5.5184e-11,
-2000000,5.2341e-11,
-2100000,4.954e-11,
-2200000,4.8784e-11,
-2300000,5.0385e-11,
-2400000,5.2233e-11,
-2500000,5.3407e-11,
-2600000,5.2962e-11,
-2700000,5.1659e-11,
-2800000,5.01e-11,
-2900000,4.7732e-11,
-3000000,4.6468e-11,
-3100000,4.7797e-11,
-3200000,4.8153e-11,
-3300000,5.2294e-11,
-3400000,5.3037e-11,
-3500000,5.153e-11,
-3600000,4.9562e-11,
-3700000,4.6582e-11,
-3800000,4.1443e-11,
-3900000,3.8498e-11,
-4000000,3.5139e-11,
-4100000,3.4028e-11,
-4200000,3.3264e-11,
-4300000,3.1839e-11,
-4400000,3.0961e-11,
-4500000,3.0788e-11,
-4600000,3.0662e-11,
-4700000,3.0158e-11,
-4800000,2.8702e-11,
-4900000,2.8608e-11,
-5000000,2.7635e-11,
-4950000,2.7926e-11,
-4850000,2.8575e-11,
-4750000,2.8678e-11,
-4650000,3.0254e-11,
-4550000,3.0818e-11,
-4450000,3.1035e-11,
-4350000,3.1453e-11,
-4250000,3.2323e-11,
-4150000,3.3431e-11,
-4050000,3.4099e-11,
-3950000,3.715e-11,
-3850000,3.9229e-11,
-3750000,4.4731e-11,
-3650000,4.7574e-11,
-3550000,5.2416e-11,
-3450000,5.4836e-11,
-3350000,5.2763e-11,
-3250000,5.039e-11,
-3150000,4.7469e-11,
-3050000,4.6951e-11,
-2950000,4.6929e-11,
-2850000,4.7873e-11,
-2750000,5.0716e-11,
-2650000,5.1878e-11,
-2550000,5.355e-11,
-2450000,5.3461e-11,
-2350000,5.1692e-11,
-2250000,4.9235e-11,
-2150000,4.8707e-11,
-2050000,5.1134e-11,
-1950000,5.3801e-11,
-1850000,5.9024e-11,
-1750000,6.1736e-11,
-1650000,6.1286e-11,
-1550000,5.9797e-11,
-1450000,6.0676e-11,
-1350000,6.4407e-11,
-1250000,7.3506e-11,
-1150000,8.6544e-11,
-1050000,1.1126e-10,
-950000,1.1775e-10,
-850000,1.083e-10,
-750000,8.2457e-11,
-650000,6.7017e-11,
-550000,5.7124e-11,
-450000,5.298e-11,
-350000,5.1156e-11,
-250000,5.109e-11,
-150000,4.9327e-11,
-50000,4.9779e-11,
50000,4.9523e-11,
150000,4.8551e-11,
