General parameters:
Start time: 2023              8             19             16             21      55.170387
Finish time: 2023              8             19             16             27      53.479131
Dwell time (ms): 3000.000000
Source chamber pressure: 2.00e+3
Differential chamber pressure: 7.97e-07
Sample chamber pressure: 3.79e-08
Example position (nm): -3191054.252198,288642.520377,-1000000.000000
Rotation angle (udeg): 107499845.000000
==========
Instrument status: 
0:Data Directory:/icon/data/2023_08_MoS2_5um_hbn_sub/
1:Sample:MoS2
2:Comments:no
3:PinholePlate:#C13
4:z_Zero:4200
5:Operator:djw77/nav31/kw570
==========
zscan inputs: 
z_sep:50000
z_range:200000 -5000000
data_path:/icon/data/2023_08_MoS2_5um_hbn_sub/
example_pos:-3191054.2522      288642.52038          -1000000
N_dwell:200
sampling_period:15
make_plots:0
m1:0.98976
m2:-0.0073571
==========
Detector params:
Sampling period (ms): 15.000000
N dwell: 200.000000
Filament current (A): 1.540000
Filament emission (mA): 1.689480
Solenoid current (A): NaN
Solenoid shim current (A): NaN
Lens params:
0  685
1  300
2  125
3      -0.002
4       -0.01
5       0.012
6         0.8
7         2.1
8         2.8
9  3000
10  1450
11         0.85
12   0
==========
Data:
z(nm),I(A)
200000,4.3747e-11,
100000,4.4117e-11,
0,4.4451e-11,
-100000,4.3415e-11,
-200000,4.4785e-11,
-300000,4.7274e-11,
-400000,4.7593e-11,
-500000,5.1393e-11,
-600000,5.9239e-11,
-700000,7.2557e-11,
-800000,8.9469e-11,
-900000,9.5603e-11,
-1000000,1.0271e-10,
-1100000,8.5024e-11,
-1200000,7.2044e-11,
-1300000,6.1552e-11,
-1400000,5.6459e-11,
-1500000,5.7234e-11,
-1600000,6.4395e-11,
-1700000,7.1951e-11,
-1800000,7.1864e-11,
-1900000,6.2701e-11,
-2000000,5.3553e-11,
-2100000,4.7618e-11,
-2200000,4.606e-11,
-2300000,4.4658e-11,
-2400000,4.4362e-11,
-2500000,4.6519e-11,
-2600000,4.6301e-11,
-2700000,4.5601e-11,
-2800000,4.4193e-11,
-2900000,4.4634e-11,
-3000000,4.4763e-11,
-3100000,4.5718e-11,
-3200000,4.6561e-11,
-3300000,4.6745e-11,
-3400000,4.8522e-11,
-3500000,5.1069e-11,
-3600000,5.0143e-11,
-3700000,4.6427e-11,
-3800000,4.1206e-11,
-3900000,3.7522e-11,
-4000000,3.5256e-11,
-4100000,3.4102e-11,
-4200000,3.2372e-11,
-4300000,3.2715e-11,
-4400000,3.1742e-11,
-4500000,3.0561e-11,
-4600000,3.037e-11,
-4700000,2.9493e-11,
-4800000,2.9837e-11,
-4900000,2.8446e-11,
-5000000,2.8699e-11,
-4950000,2.8788e-11,
-4850000,2.8812e-11,
-4750000,3.0579e-11,
-4650000,3.0825e-11,
-4550000,3.0384e-11,
-4450000,3.139e-11,
-4350000,3.1866e-11,
-4250000,3.276e-11,
-4150000,3.299e-11,
-4050000,3.4101e-11,
-3950000,3.5606e-11,
-3850000,3.9339e-11,
-3750000,4.3815e-11,
-3650000,4.7926e-11,
-3550000,5.0856e-11,
-3450000,5.0971e-11,
-3350000,4.6597e-11,
-3250000,4.7479e-11,
-3150000,4.7294e-11,
-3050000,4.6364e-11,
-2950000,4.5823e-11,
-2850000,4.4468e-11,
-2750000,4.4472e-11,
-2650000,4.5094e-11,
-2550000,4.5984e-11,
-2450000,4.5544e-11,
-2350000,4.5176e-11,
-2250000,4.5089e-11,
-2150000,4.5521e-11,
-2050000,4.9024e-11,
-1950000,5.7878e-11,
-1850000,6.7306e-11,
-1750000,7.2518e-11,
-1650000,6.887e-11,
-1550000,6.0091e-11,
-1450000,5.5594e-11,
-1350000,5.8293e-11,
-1250000,6.3782e-11,
-1150000,7.5275e-11,
-1050000,9.2171e-11,
-950000,9.1957e-11,
-850000,9.1084e-11,
-750000,7.9225e-11,
-650000,6.6334e-11,
-550000,5.6181e-11,
-450000,5.0311e-11,
-350000,4.643e-11,
-250000,4.5856e-11,
-150000,4.465e-11,
-50000,4.5468e-11,
50000,4.5545e-11,
150000,4.4123e-11,
