General parameters:
Start time: 2023              8             22             13              0       36.64156
Finish time: 2023              8             22             13              6      31.072631
Dwell time (ms): 3000.000000
Source chamber pressure: 2.00e+3
Differential chamber pressure: 7.98e-07
Sample chamber pressure: 3.84e-08
Example position (nm): -3316619.511810,265881.451870,-1000000.000000
Rotation angle (udeg): 97500195.000000
==========
Instrument status: 
0:Data Directory:/icon/data/2023_08_MoS2_5um_hbn_sub/
1:Sample:MoS2
2:Comments:no
3:PinholePlate:#C13
4:z_Zero:4200
5:Operator:djw77/nav31/kw570
==========
zscan inputs: 
z_sep:50000
z_range:200000 -5000000
data_path:/icon/data/2023_08_MoS2_5um_hbn_sub/
example_pos:-3316619.5118      265881.45187          -1000000
N_dwell:200
sampling_period:15
make_plots:0
m1:0.98976
m2:-0.0073571
==========
Detector params:
Sampling period (ms): 15.000000
N dwell: 200.000000
Filament current (A): 1.540000
Filament emission (mA): 1.737360
Solenoid current (A): NaN
Solenoid shim current (A): NaN
Lens params:
0  685
1  300
2  125
3      -0.002
4       -0.01
5       0.012
6         0.8
7         2.1
8         2.8
9  3000
10  1450
11         0.85
12   0
==========
Data:
z(nm),I(A)
200000,4.5544e-11,
100000,4.571e-11,
0,4.6626e-11,
-100000,4.6951e-11,
-200000,4.497e-11,
-300000,4.5785e-11,
-400000,4.5447e-11,
-500000,4.5811e-11,
-600000,4.4973e-11,
-700000,4.7168e-11,
-800000,4.6087e-11,
-900000,4.7324e-11,
-1000000,4.7895e-11,
-1100000,4.7441e-11,
-1200000,4.7123e-11,
-1300000,4.8458e-11,
-1400000,4.8802e-11,
-1500000,4.8249e-11,
-1600000,4.8414e-11,
-1700000,4.7889e-11,
-1800000,4.7855e-11,
-1900000,4.7886e-11,
-2000000,4.7486e-11,
-2100000,4.8043e-11,
-2200000,4.7407e-11,
-2300000,4.796e-11,
-2400000,4.6607e-11,
-2500000,4.7302e-11,
-2600000,4.5998e-11,
-2700000,4.5289e-11,
-2800000,4.5229e-11,
-2900000,4.3556e-11,
-3000000,4.3363e-11,
-3100000,4.2224e-11,
-3200000,4.1203e-11,
-3300000,4.1444e-11,
-3400000,3.9939e-11,
-3500000,4.0478e-11,
-3600000,3.982e-11,
-3700000,3.917e-11,
-3800000,3.783e-11,
-3900000,3.7002e-11,
-4000000,3.6565e-11,
-4100000,3.568e-11,
-4200000,3.6619e-11,
-4300000,3.485e-11,
-4400000,3.4256e-11,
-4500000,3.3076e-11,
-4600000,3.3134e-11,
-4700000,3.2358e-11,
-4800000,3.1894e-11,
-4900000,2.9659e-11,
-5000000,3.0171e-11,
-4950000,3.0674e-11,
-4850000,3.1148e-11,
-4750000,3.1147e-11,
-4650000,3.2922e-11,
-4550000,3.3462e-11,
-4450000,3.344e-11,
-4350000,3.462e-11,
-4250000,3.4736e-11,
-4150000,3.5435e-11,
-4050000,3.6698e-11,
-3950000,3.7005e-11,
-3850000,3.7338e-11,
-3750000,3.8867e-11,
-3650000,3.9261e-11,
-3550000,3.9911e-11,
-3450000,4.0146e-11,
-3350000,3.9893e-11,
-3250000,4.2985e-11,
-3150000,4.1998e-11,
-3050000,4.3752e-11,
-2950000,4.4317e-11,
-2850000,4.4957e-11,
-2750000,4.5718e-11,
-2650000,4.6219e-11,
-2550000,4.5967e-11,
-2450000,4.6882e-11,
-2350000,4.7123e-11,
-2250000,4.7663e-11,
-2150000,4.7533e-11,
-2050000,4.7808e-11,
-1950000,4.8425e-11,
-1850000,4.8112e-11,
-1750000,4.9163e-11,
-1650000,4.7881e-11,
-1550000,4.8448e-11,
-1450000,4.8563e-11,
-1350000,4.7632e-11,
-1250000,4.7518e-11,
-1150000,4.8262e-11,
-1050000,4.8108e-11,
-950000,4.8e-11,
-850000,4.8429e-11,
-750000,4.8174e-11,
-650000,4.7285e-11,
-550000,4.6402e-11,
-450000,4.5888e-11,
-350000,4.5245e-11,
-250000,4.6018e-11,
-150000,4.529e-11,
-50000,4.5987e-11,
50000,4.5564e-11,
150000,4.5685e-11,
