General parameters:
Start time: 2023              9             20             18             58       41.09115
Finish time: 2023              9             20             19              7      42.143706
Dwell time (ms): 3750.000000
Source chamber pressure: Error-S
Differential chamber pressure: 8.17e-07
Sample chamber pressure: 3.62e-08
Example position (nm): -4592000.000000,253000.000000,-2700000.000000
Rotation angle (udeg): 125000130.000000
==========
Instrument status: 
0:Data Directory:/icon/data/2023_08_MoS2_5um_hbn_sub/
1:Sample:MoS2
2:Comments:no
3:PinholePlate:#C13
4:z_Zero:4200
5:Operator:djw77/nav31/kw570
==========
zscan inputs: 
z_sep:50000
z_range:500000 -6000000
data_path:/icon/data/2023_08_MoS2_5um_hbn_sub/
example_pos:-4592000   253000 -2700000
N_dwell:250
sampling_period:15
make_plots:1
m1:0.98976
m2:-0.0073571
==========
Detector params:
Sampling period (ms): 15.000000
N dwell: 250.000000
Filament current (A): 1.540000
Filament emission (mA): 3.052350
Solenoid current (A): NaN
Solenoid shim current (A): NaN
Lens params:
0  685
1  300
2  125
3      -0.002
4       -0.01
5       0.012
6         0.8
7         2.1
8         2.8
9  3000
10  1450
11         0.85
12   0
==========
Data:
z(nm),I(A)
500000,2.4085e-10,
400000,2.5727e-10,
300000,2.7423e-10,
200000,2.8164e-10,
100000,2.7828e-10,
0,2.7463e-10,
-100000,2.6489e-10,
-200000,2.5755e-10,
-300000,2.5555e-10,
-400000,2.5728e-10,
-500000,2.769e-10,
-600000,3.237e-10,
-700000,4.1214e-10,
-800000,5.357e-10,
-900000,5.3144e-10,
-1000000,4.2197e-10,
-1100000,3.2555e-10,
-1200000,2.6863e-10,
-1300000,2.5055e-10,
-1400000,2.6008e-10,
-1500000,3.0101e-10,
-1600000,3.7622e-10,
-1700000,4.3917e-10,
-1800000,4.3512e-10,
-1900000,3.8416e-10,
-2000000,3.034e-10,
-2100000,2.5033e-10,
-2200000,2.4595e-10,
-2300000,2.7724e-10,
-2400000,3.5734e-10,
-2500000,4.7219e-10,
-2600000,5.6679e-10,
-2700000,5.9946e-10,
-2800000,5.6593e-10,
-2900000,4.7595e-10,
-3000000,3.5696e-10,
-3100000,2.7586e-10,
-3200000,2.3865e-10,
-3300000,2.298e-10,
-3400000,2.4315e-10,
-3500000,2.6971e-10,
-3600000,3.034e-10,
-3700000,3.3347e-10,
-3800000,3.3708e-10,
-3900000,3.215e-10,
-4000000,2.886e-10,
-4100000,2.4453e-10,
-4200000,2.0518e-10,
-4300000,1.8022e-10,
-4400000,1.6077e-10,
-4500000,1.513e-10,
-4600000,1.4586e-10,
-4700000,1.4146e-10,
-4800000,1.4166e-10,
-4900000,1.4428e-10,
-5000000,1.4451e-10,
-5100000,1.4534e-10,
-5200000,1.4342e-10,
-5300000,1.4472e-10,
-5400000,1.4375e-10,
-5500000,1.3178e-10,
-5600000,1.2682e-10,
-5700000,1.2697e-10,
-5800000,1.2391e-10,
-5900000,1.2025e-10,
-6000000,1.1688e-10,
-5950000,1.1803e-10,
-5850000,1.2114e-10,
-5750000,1.2638e-10,
-5650000,1.2652e-10,
-5550000,1.2712e-10,
-5450000,1.3794e-10,
-5350000,1.4646e-10,
-5250000,1.4493e-10,
-5150000,1.473e-10,
-5050000,1.4508e-10,
-4950000,1.4375e-10,
-4850000,1.4267e-10,
-4750000,1.4368e-10,
-4650000,1.4382e-10,
-4550000,1.472e-10,
-4450000,1.5547e-10,
-4350000,1.6897e-10,
-4250000,1.889e-10,
-4150000,2.2319e-10,
-4050000,2.654e-10,
-3950000,3.0358e-10,
-3850000,3.2933e-10,
-3750000,3.373e-10,
-3650000,3.1967e-10,
-3550000,2.9081e-10,
-3450000,2.6026e-10,
-3350000,2.368e-10,
-3250000,2.3359e-10,
-3150000,2.5274e-10,
-3050000,3.0408e-10,
-2950000,4.0533e-10,
-2850000,5.2246e-10,
-2750000,5.9371e-10,
-2650000,5.9363e-10,
-2550000,5.3567e-10,
-2450000,4.1974e-10,
-2350000,3.1742e-10,
-2250000,2.5947e-10,
-2150000,2.4822e-10,
-2050000,2.6952e-10,
-1950000,3.3044e-10,
-1850000,3.9347e-10,
-1750000,4.3438e-10,
-1650000,4.1036e-10,
-1550000,3.4352e-10,
-1450000,2.8502e-10,
-1350000,2.5797e-10,
-1250000,2.6158e-10,
-1150000,2.8807e-10,
-1050000,3.6096e-10,
-950000,4.7275e-10,
-850000,5.3912e-10,
-750000,4.8013e-10,
-650000,3.6976e-10,
-550000,3.0835e-10,
-450000,2.7133e-10,
-350000,2.6992e-10,
-250000,2.7705e-10,
-150000,2.7147e-10,
-50000,2.7559e-10,
50000,2.7884e-10,
150000,2.7968e-10,
250000,2.7752e-10,
350000,2.6717e-10,
450000,2.5143e-10,
