General parameters:
Start time: 2023              8             18             17             38      22.683215
Finish time: 2023              8             18             17             44      19.383723
Dwell time (ms): 3000.000000
Source chamber pressure: 2.00e+3
Differential chamber pressure: 7.95e-07
Sample chamber pressure: 3.88e-08
Example position (nm): -3844362.292638,114858.983980,-1000000.000000
Rotation angle (udeg): 62500155.000000
==========
Instrument status: 
0:Data Directory:/icon/data/2023_08_MoS2_5um_hbn_sub/
1:Sample:MoS2
2:Comments:no
3:PinholePlate:#C13
4:z_Zero:4200
5:Operator:djw77/nav31/kw570
==========
zscan inputs: 
z_sep:50000
z_range:200000 -5000000
data_path:/icon/data/2023_08_MoS2_5um_hbn_sub/
example_pos:-3844362.2926      114858.98398          -1000000
N_dwell:200
sampling_period:15
make_plots:0
m1:0.98976
m2:-0.0073571
==========
Detector params:
Sampling period (ms): 15.000000
N dwell: 200.000000
Filament current (A): 1.540000
Filament emission (mA): 1.656306
Solenoid current (A): NaN
Solenoid shim current (A): NaN
Lens params:
0  685
1  300
2  125
3      -0.002
4       -0.01
5       0.012
6         0.8
7         2.1
8         2.8
9  3000
10  1450
11         0.85
12   0
==========
Data:
z(nm),I(A)
200000,3.8756e-11,
100000,3.8437e-11,
0,3.7476e-11,
-100000,3.7302e-11,
-200000,3.8575e-11,
-300000,3.9588e-11,
-400000,3.9241e-11,
-500000,3.9755e-11,
-600000,4.094e-11,
-700000,4.3556e-11,
-800000,4.3652e-11,
-900000,4.206e-11,
-1000000,4.4435e-11,
-1100000,4.5983e-11,
-1200000,4.7687e-11,
-1300000,4.8587e-11,
-1400000,4.7079e-11,
-1500000,4.5508e-11,
-1600000,4.7901e-11,
-1700000,4.851e-11,
-1800000,4.781e-11,
-1900000,4.6819e-11,
-2000000,4.6029e-11,
-2100000,4.6255e-11,
-2200000,4.3632e-11,
-2300000,4.3909e-11,
-2400000,4.4142e-11,
-2500000,4.3433e-11,
-2600000,4.1976e-11,
-2700000,4.2638e-11,
-2800000,4.1663e-11,
-2900000,4.2757e-11,
-3000000,4.2155e-11,
-3100000,3.9623e-11,
-3200000,3.7777e-11,
-3300000,3.591e-11,
-3400000,3.5052e-11,
-3500000,3.5936e-11,
-3600000,3.4544e-11,
-3700000,3.3794e-11,
-3800000,3.2749e-11,
-3900000,3.1721e-11,
-4000000,3.1648e-11,
-4100000,3.0901e-11,
-4200000,3.005e-11,
-4300000,2.9841e-11,
-4400000,2.8594e-11,
-4500000,2.8569e-11,
-4600000,2.7128e-11,
-4700000,2.6417e-11,
-4800000,2.6132e-11,
-4900000,2.5663e-11,
-5000000,2.6011e-11,
-4950000,2.5781e-11,
-4850000,2.5877e-11,
-4750000,2.6816e-11,
-4650000,2.6334e-11,
-4550000,2.7345e-11,
-4450000,2.8598e-11,
-4350000,2.908e-11,
-4250000,2.8948e-11,
-4150000,3.0137e-11,
-4050000,3.0817e-11,
-3950000,3.0571e-11,
-3850000,3.2953e-11,
-3750000,3.2362e-11,
-3650000,3.2507e-11,
-3550000,3.4518e-11,
-3450000,3.5389e-11,
-3350000,3.5911e-11,
-3250000,3.8014e-11,
-3150000,3.9388e-11,
-3050000,3.9893e-11,
-2950000,4.1681e-11,
-2850000,4.1533e-11,
-2750000,4.0856e-11,
-2650000,4.2645e-11,
-2550000,4.156e-11,
-2450000,4.3334e-11,
-2350000,4.3354e-11,
-2250000,4.4095e-11,
-2150000,4.4083e-11,
-2050000,4.4387e-11,
-1950000,4.5993e-11,
-1850000,4.7829e-11,
-1750000,4.7234e-11,
-1650000,4.7542e-11,
-1550000,4.7e-11,
-1450000,4.7949e-11,
-1350000,4.8799e-11,
-1250000,4.9865e-11,
-1150000,4.7349e-11,
-1050000,4.6471e-11,
-950000,4.3526e-11,
-850000,4.2784e-11,
-750000,4.5117e-11,
-650000,4.3885e-11,
-550000,4.286e-11,
-450000,4.1714e-11,
-350000,4.0196e-11,
-250000,4.0251e-11,
-150000,3.8861e-11,
-50000,4.0299e-11,
50000,3.9402e-11,
150000,4.0264e-11,
