General parameters:
Start time: 2023              8             14             14             37      39.387376
Finish time: 2023              8             14             14             52       52.73365
Dwell time (ms): 3750.000000
Source chamber pressure: 2.00e+3
Differential chamber pressure: 7.80e-07
Sample chamber pressure: 3.78e-08
Example position (nm): -3500000.000000,-288000.000000,-1000000.000000
Rotation angle (udeg): 89999810.000000
==========
Instrument status: 
0:Data Directory:/icon/data/2023_08_MoS2_5um_hbn_sub/
1:Sample:MoS2
2:Comments:no
3:PinholePlate:#C13
4:z_Zero:4200
5:Operator:djw77/nav31/kw570
==========
zscan inputs: 
z_sep:30000
z_range:500000 -6000000
data_path:/icon/data/2023_08_MoS2_5um_hbn_sub/
example_pos:-3500000  -288000 -1000000
N_dwell:250
sampling_period:15
make_plots:1
m1:0.98534
m2:-0.0012405
==========
Detector params:
Sampling period (ms): 15.000000
N dwell: 250.000000
Filament current (A): 1.540000
Filament emission (mA): 1.635102
Solenoid current (A): NaN
Solenoid shim current (A): NaN
Lens params:
0  685
1  300
2  125
3      -0.002
4       -0.01
5       0.012
6         0.8
7         2.1
8         2.8
9  3000
10  1450
11         0.85
12   0
==========
Data:
z(nm),I(A)
500000,8.7547e-11,
440000,8.7883e-11,
380000,8.7975e-11,
320000,8.8884e-11,
260000,8.8184e-11,
200000,8.8357e-11,
140000,8.9358e-11,
80000,8.8598e-11,
20000,8.9055e-11,
-40000,8.9532e-11,
-100000,8.7283e-11,
-160000,8.6804e-11,
-220000,8.7441e-11,
-280000,8.7849e-11,
-340000,8.6932e-11,
-400000,8.8066e-11,
-460000,8.8932e-11,
-520000,8.718e-11,
-580000,8.8498e-11,
-640000,8.948e-11,
-700000,8.9287e-11,
-760000,9.0298e-11,
-820000,9.0174e-11,
-880000,9.0543e-11,
-940000,9.091e-11,
-1000000,9.1389e-11,
-1060000,9.0499e-11,
-1120000,9.1961e-11,
-1180000,9.1924e-11,
-1240000,9.1072e-11,
-1300000,9.2926e-11,
-1360000,9.2068e-11,
-1420000,9.1755e-11,
-1480000,9.235e-11,
-1540000,9.1975e-11,
-1600000,9.2833e-11,
-1660000,9.3629e-11,
-1720000,9.2017e-11,
-1780000,9.2635e-11,
-1840000,9.2175e-11,
-1900000,9.233e-11,
-1960000,9.2233e-11,
-2020000,9.0742e-11,
-2080000,9.1539e-11,
-2140000,9.1486e-11,
-2200000,9.2698e-11,
-2260000,9.1038e-11,
-2320000,8.9031e-11,
-2380000,8.9871e-11,
-2440000,8.8751e-11,
-2500000,8.826e-11,
-2560000,8.7259e-11,
-2620000,8.7e-11,
-2680000,8.6757e-11,
-2740000,8.6237e-11,
-2800000,8.5019e-11,
-2860000,8.5158e-11,
-2920000,8.3643e-11,
-2980000,8.4284e-11,
-3040000,8.3273e-11,
-3100000,8.2218e-11,
-3160000,8.2377e-11,
-3220000,8.0818e-11,
-3280000,8.0294e-11,
-3340000,8.0008e-11,
-3400000,7.8243e-11,
-3460000,7.7514e-11,
-3520000,7.8094e-11,
-3580000,7.7003e-11,
-3640000,7.6575e-11,
-3700000,7.6169e-11,
-3760000,7.474e-11,
-3820000,7.3833e-11,
-3880000,7.3264e-11,
-3940000,7.2598e-11,
-4000000,7.1588e-11,
-4060000,7.0828e-11,
-4120000,7.1978e-11,
-4180000,7.0833e-11,
-4240000,6.9805e-11,
-4300000,6.913e-11,
-4360000,6.867e-11,
-4420000,6.7363e-11,
-4480000,6.7426e-11,
-4540000,6.6219e-11,
-4600000,6.5921e-11,
-4660000,6.5978e-11,
-4720000,6.4805e-11,
-4780000,6.372e-11,
-4840000,6.3671e-11,
-4900000,6.3582e-11,
-4960000,6.2235e-11,
-5020000,6.3445e-11,
-5080000,6.2089e-11,
-5140000,6.0688e-11,
-5200000,6.1218e-11,
-5260000,6.1193e-11,
-5320000,5.9847e-11,
-5380000,5.9268e-11,
-5440000,5.895e-11,
-5500000,5.9552e-11,
-5560000,5.8803e-11,
-5620000,5.8193e-11,
-5680000,5.763e-11,
-5740000,5.7456e-11,
-5800000,5.7315e-11,
-5860000,5.6699e-11,
-5920000,5.593e-11,
-5980000,5.5372e-11,
-5950000,5.595e-11,
-5890000,5.556e-11,
-5830000,5.7491e-11,
-5770000,5.6563e-11,
-5710000,5.6948e-11,
-5650000,5.8599e-11,
-5590000,5.9234e-11,
-5530000,5.829e-11,
-5470000,5.8442e-11,
-5410000,6.0733e-11,
-5350000,5.8812e-11,
-5290000,6.0134e-11,
-5230000,6.113e-11,
-5170000,6.077e-11,
-5110000,6.1477e-11,
-5050000,6.2076e-11,
-4990000,6.2622e-11,
-4930000,6.2512e-11,
-4870000,6.3916e-11,
-4810000,6.4412e-11,
-4750000,6.3697e-11,
-4690000,6.5784e-11,
-4630000,6.551e-11,
-4570000,6.6421e-11,
-4510000,6.6427e-11,
-4450000,6.7679e-11,
-4390000,6.7456e-11,
-4330000,6.8622e-11,
-4270000,6.9992e-11,
-4210000,7.0204e-11,
-4150000,7.0915e-11,
-4090000,7.0908e-11,
-4030000,7.1491e-11,
-3970000,7.3126e-11,
-3910000,7.2857e-11,
-3850000,7.4562e-11,
-3790000,7.5599e-11,
-3730000,7.5722e-11,
-3670000,7.6324e-11,
-3610000,7.6346e-11,
-3550000,7.6686e-11,
-3490000,7.7559e-11,
-3430000,7.795e-11,
-3370000,8.0099e-11,
-3310000,8.0029e-11,
-3250000,8.1162e-11,
-3190000,8.0107e-11,
-3130000,8.1667e-11,
-3070000,8.3228e-11,
-3010000,8.3148e-11,
-2950000,8.4032e-11,
-2890000,8.4438e-11,
-2830000,8.5547e-11,
-2770000,8.5102e-11,
-2710000,8.6642e-11,
-2650000,8.7191e-11,
-2590000,8.8399e-11,
-2530000,8.871e-11,
-2470000,8.903e-11,
-2410000,8.943e-11,
-2350000,8.9857e-11,
-2290000,8.9735e-11,
-2230000,9.1438e-11,
-2170000,9.0512e-11,
-2110000,9.1305e-11,
-2050000,9.1903e-11,
-1990000,9.1185e-11,
-1930000,9.2238e-11,
-1870000,9.0897e-11,
-1810000,9.137e-11,
-1750000,9.2014e-11,
-1690000,9.1901e-11,
-1630000,9.169e-11,
-1570000,9.3018e-11,
-1510000,9.2543e-11,
-1450000,9.1332e-11,
-1390000,9.2765e-11,
-1330000,9.1704e-11,
-1270000,9.0965e-11,
-1210000,9.2483e-11,
-1150000,9.1698e-11,
-1090000,9.0572e-11,
-1030000,9.1114e-11,
-970000,9.0203e-11,
-910000,9.0169e-11,
-850000,9.0125e-11,
-790000,8.931e-11,
-730000,9.0112e-11,
-670000,8.9349e-11,
-610000,8.9559e-11,
-550000,8.8292e-11,
-490000,8.8672e-11,
-430000,8.9143e-11,
-370000,8.7314e-11,
-310000,8.673e-11,
-250000,8.7458e-11,
-190000,8.9435e-11,
-130000,8.8456e-11,
-70000,8.7824e-11,
-10000,8.8281e-11,
50000,8.7828e-11,
110000,8.7948e-11,
170000,8.8613e-11,
230000,8.8931e-11,
290000,8.8398e-11,
350000,8.7714e-11,
410000,8.7933e-11,
470000,8.8031e-11,
