General parameters:
Start time: 2023              8             21             23             28      10.820963
Finish time: 2023              8             21             23             34       7.963055
Dwell time (ms): 3000.000000
Source chamber pressure: 2.00e+3
Differential chamber pressure: 7.98e-07
Sample chamber pressure: 3.79e-08
Example position (nm): -2962410.649286,238124.556854,-1000000.000000
Rotation angle (udeg): 125000055.000000
==========
Instrument status: 
0:Data Directory:/icon/data/2023_08_MoS2_5um_hbn_sub/
1:Sample:MoS2
2:Comments:no
3:PinholePlate:#C13
4:z_Zero:4200
5:Operator:djw77/nav31/kw570
==========
zscan inputs: 
z_sep:50000
z_range:200000 -5000000
data_path:/icon/data/2023_08_MoS2_5um_hbn_sub/
example_pos:-2962410.6493      238124.55685          -1000000
N_dwell:200
sampling_period:15
make_plots:0
m1:0.98976
m2:-0.0073571
==========
Detector params:
Sampling period (ms): 15.000000
N dwell: 200.000000
Filament current (A): 1.540000
Filament emission (mA): 1.744200
Solenoid current (A): NaN
Solenoid shim current (A): NaN
Lens params:
0  685
1  300
2  125
3      -0.002
4       -0.01
5       0.012
6         0.8
7         2.1
8         2.8
9  3000
10  1450
11         0.85
12   0
==========
Data:
z(nm),I(A)
200000,4.4191e-11,
100000,4.5068e-11,
0,4.5247e-11,
-100000,4.5616e-11,
-200000,4.4107e-11,
-300000,4.619e-11,
-400000,4.5866e-11,
-500000,4.5767e-11,
-600000,4.6433e-11,
-700000,4.5858e-11,
-800000,4.7118e-11,
-900000,4.7596e-11,
-1000000,4.7083e-11,
-1100000,4.7311e-11,
-1200000,4.7884e-11,
-1300000,4.7412e-11,
-1400000,4.8757e-11,
-1500000,4.7905e-11,
-1600000,4.7048e-11,
-1700000,4.7758e-11,
-1800000,4.7659e-11,
-1900000,4.7936e-11,
-2000000,4.7112e-11,
-2100000,4.6499e-11,
-2200000,4.6469e-11,
-2300000,4.5665e-11,
-2400000,4.6172e-11,
-2500000,4.4965e-11,
-2600000,4.5389e-11,
-2700000,4.4761e-11,
-2800000,4.2754e-11,
-2900000,4.3583e-11,
-3000000,4.2019e-11,
-3100000,4.1939e-11,
-3200000,4.0124e-11,
-3300000,3.9856e-11,
-3400000,3.9872e-11,
-3500000,3.9093e-11,
-3600000,3.8332e-11,
-3700000,3.8095e-11,
-3800000,3.7023e-11,
-3900000,3.5889e-11,
-4000000,3.5673e-11,
-4100000,3.457e-11,
-4200000,3.4316e-11,
-4300000,3.3436e-11,
-4400000,3.3753e-11,
-4500000,3.295e-11,
-4600000,3.1588e-11,
-4700000,3.0802e-11,
-4800000,3.0426e-11,
-4900000,3.0269e-11,
-5000000,3.0002e-11,
-4950000,3.0357e-11,
-4850000,3.0951e-11,
-4750000,3.1841e-11,
-4650000,3.1455e-11,
-4550000,3.2631e-11,
-4450000,3.1849e-11,
-4350000,3.3384e-11,
-4250000,3.3705e-11,
-4150000,3.4609e-11,
-4050000,3.5778e-11,
-3950000,3.5096e-11,
-3850000,3.66e-11,
-3750000,3.7507e-11,
-3650000,3.8149e-11,
-3550000,3.8126e-11,
-3450000,3.9335e-11,
-3350000,3.9546e-11,
-3250000,4.0152e-11,
-3150000,4.0866e-11,
-3050000,4.1515e-11,
-2950000,4.2377e-11,
-2850000,4.2543e-11,
-2750000,4.4148e-11,
-2650000,4.4591e-11,
-2550000,4.5183e-11,
-2450000,4.4849e-11,
-2350000,4.4981e-11,
-2250000,4.6333e-11,
-2150000,4.578e-11,
-2050000,4.6845e-11,
-1950000,4.7527e-11,
-1850000,4.7157e-11,
-1750000,4.6551e-11,
-1650000,4.8548e-11,
-1550000,4.7812e-11,
-1450000,4.7916e-11,
-1350000,4.7574e-11,
-1250000,4.7591e-11,
-1150000,4.745e-11,
-1050000,4.722e-11,
-950000,4.6204e-11,
-850000,4.5415e-11,
-750000,4.5965e-11,
-650000,4.609e-11,
-550000,4.6084e-11,
-450000,4.6114e-11,
-350000,4.5315e-11,
-250000,4.6308e-11,
-150000,4.5641e-11,
-50000,4.5291e-11,
50000,4.4919e-11,
150000,4.4539e-11,
