General parameters:
Start time: 2023              8             21             14             24       38.01837
Finish time: 2023              8             21             14             30      33.397827
Dwell time (ms): 3000.000000
Source chamber pressure: 2.00e+3
Differential chamber pressure: 7.97e-07
Sample chamber pressure: 3.84e-08
Example position (nm): -3803451.498271,170745.342824,-1000000.000000
Rotation angle (udeg): 65000330.000000
==========
Instrument status: 
0:Data Directory:/icon/data/2023_08_MoS2_5um_hbn_sub/
1:Sample:MoS2
2:Comments:no
3:PinholePlate:#C13
4:z_Zero:4200
5:Operator:djw77/nav31/kw570
==========
zscan inputs: 
z_sep:50000
z_range:200000 -5000000
data_path:/icon/data/2023_08_MoS2_5um_hbn_sub/
example_pos:-3803451.4983      170745.34282          -1000000
N_dwell:200
sampling_period:15
make_plots:0
m1:0.98976
m2:-0.0073571
==========
Detector params:
Sampling period (ms): 15.000000
N dwell: 200.000000
Filament current (A): 1.540000
Filament emission (mA): 1.744200
Solenoid current (A): NaN
Solenoid shim current (A): NaN
Lens params:
0  685
1  300
2  125
3      -0.002
4       -0.01
5       0.012
6         0.8
7         2.1
8         2.8
9  3000
10  1450
11         0.85
12   0
==========
Data:
z(nm),I(A)
200000,4.1891e-11,
100000,4.1348e-11,
0,4.1471e-11,
-100000,4.1176e-11,
-200000,4.1083e-11,
-300000,4.2276e-11,
-400000,4.2937e-11,
-500000,4.3892e-11,
-600000,4.3522e-11,
-700000,4.4597e-11,
-800000,4.5183e-11,
-900000,4.5928e-11,
-1000000,4.5831e-11,
-1100000,4.5796e-11,
-1200000,4.6085e-11,
-1300000,4.7263e-11,
-1400000,4.7355e-11,
-1500000,4.8203e-11,
-1600000,4.7198e-11,
-1700000,4.6329e-11,
-1800000,4.7323e-11,
-1900000,4.78e-11,
-2000000,4.7396e-11,
-2100000,4.7374e-11,
-2200000,4.7325e-11,
-2300000,4.6676e-11,
-2400000,4.5983e-11,
-2500000,4.5635e-11,
-2600000,4.4721e-11,
-2700000,4.4844e-11,
-2800000,4.4648e-11,
-2900000,4.353e-11,
-3000000,4.3134e-11,
-3100000,4.2585e-11,
-3200000,4.2354e-11,
-3300000,4.071e-11,
-3400000,4.0266e-11,
-3500000,4.0132e-11,
-3600000,3.9089e-11,
-3700000,3.8005e-11,
-3800000,3.7768e-11,
-3900000,3.714e-11,
-4000000,3.5981e-11,
-4100000,3.566e-11,
-4200000,3.4768e-11,
-4300000,3.4712e-11,
-4400000,3.3797e-11,
-4500000,3.3505e-11,
-4600000,3.3354e-11,
-4700000,3.2111e-11,
-4800000,3.1929e-11,
-4900000,3.1145e-11,
-5000000,3.0242e-11,
-4950000,3.0378e-11,
-4850000,3.1473e-11,
-4750000,3.1546e-11,
-4650000,3.2519e-11,
-4550000,3.2585e-11,
-4450000,3.4477e-11,
-4350000,3.4059e-11,
-4250000,3.4365e-11,
-4150000,3.5337e-11,
-4050000,3.5909e-11,
-3950000,3.7006e-11,
-3850000,3.743e-11,
-3750000,3.751e-11,
-3650000,3.9301e-11,
-3550000,3.9543e-11,
-3450000,4.0315e-11,
-3350000,4.1214e-11,
-3250000,4.1389e-11,
-3150000,4.1952e-11,
-3050000,4.3954e-11,
-2950000,4.3131e-11,
-2850000,4.3795e-11,
-2750000,4.52e-11,
-2650000,4.4918e-11,
-2550000,4.5213e-11,
-2450000,4.5813e-11,
-2350000,4.666e-11,
-2250000,4.6152e-11,
-2150000,4.6951e-11,
-2050000,4.838e-11,
-1950000,4.8682e-11,
-1850000,4.7857e-11,
-1750000,4.7994e-11,
-1650000,4.7169e-11,
-1550000,4.7572e-11,
-1450000,4.8699e-11,
-1350000,4.6339e-11,
-1250000,4.6852e-11,
-1150000,4.6718e-11,
-1050000,4.6699e-11,
-950000,4.5918e-11,
-850000,4.4858e-11,
-750000,4.4784e-11,
-650000,4.3937e-11,
-550000,4.2742e-11,
-450000,4.2373e-11,
-350000,4.2039e-11,
-250000,4.2814e-11,
-150000,4.0425e-11,
-50000,4.1418e-11,
50000,4.1234e-11,
150000,4.1753e-11,
