General parameters:
Start time: 2023              8             19             17              4      17.808493
Finish time: 2023              8             19             17             10      16.946385
Dwell time (ms): 3000.000000
Source chamber pressure: 2.00e+3
Differential chamber pressure: 7.98e-07
Sample chamber pressure: 3.79e-08
Example position (nm): -2923674.530931,212351.423295,-1000000.000000
Rotation angle (udeg): 125000095.000000
==========
Instrument status: 
0:Data Directory:/icon/data/2023_08_MoS2_5um_hbn_sub/
1:Sample:MoS2
2:Comments:no
3:PinholePlate:#C13
4:z_Zero:4200
5:Operator:djw77/nav31/kw570
==========
zscan inputs: 
z_sep:50000
z_range:200000 -5000000
data_path:/icon/data/2023_08_MoS2_5um_hbn_sub/
example_pos:-2923674.5309      212351.42329          -1000000
N_dwell:200
sampling_period:15
make_plots:0
m1:0.98976
m2:-0.0073571
==========
Detector params:
Sampling period (ms): 15.000000
N dwell: 200.000000
Filament current (A): 1.540000
Filament emission (mA): 1.693242
Solenoid current (A): NaN
Solenoid shim current (A): NaN
Lens params:
0  685
1  300
2  125
3      -0.002
4       -0.01
5       0.012
6         0.8
7         2.1
8         2.8
9  3000
10  1450
11         0.85
12   0
==========
Data:
z(nm),I(A)
200000,4.9801e-11,
100000,5.3007e-11,
0,5.0511e-11,
-100000,4.8815e-11,
-200000,4.8568e-11,
-300000,4.915e-11,
-400000,4.8101e-11,
-500000,5.0065e-11,
-600000,5.3527e-11,
-700000,5.6833e-11,
-800000,4.9276e-11,
-900000,4.6826e-11,
-1000000,4.7259e-11,
-1100000,4.9129e-11,
-1200000,5.118e-11,
-1300000,4.9093e-11,
-1400000,4.9318e-11,
-1500000,4.9077e-11,
-1600000,4.922e-11,
-1700000,5.0326e-11,
-1800000,5.5133e-11,
-1900000,5.5979e-11,
-2000000,5.2066e-11,
-2100000,4.8496e-11,
-2200000,4.7493e-11,
-2300000,4.7901e-11,
-2400000,4.7418e-11,
-2500000,4.6098e-11,
-2600000,4.5904e-11,
-2700000,4.4851e-11,
-2800000,4.4813e-11,
-2900000,4.2846e-11,
-3000000,4.2482e-11,
-3100000,4.2066e-11,
-3200000,4.1261e-11,
-3300000,3.9721e-11,
-3400000,3.9659e-11,
-3500000,3.9504e-11,
-3600000,3.8119e-11,
-3700000,3.8088e-11,
-3800000,3.8024e-11,
-3900000,3.6317e-11,
-4000000,3.6345e-11,
-4100000,3.551e-11,
-4200000,3.4478e-11,
-4300000,3.4362e-11,
-4400000,3.329e-11,
-4500000,3.182e-11,
-4600000,3.1323e-11,
-4700000,3.0732e-11,
-4800000,3.1229e-11,
-4900000,2.9994e-11,
-5000000,3.0354e-11,
-4950000,3.0497e-11,
-4850000,3.0155e-11,
-4750000,3.0437e-11,
-4650000,3.1134e-11,
-4550000,3.2588e-11,
-4450000,3.2741e-11,
-4350000,3.3198e-11,
-4250000,3.3473e-11,
-4150000,3.4156e-11,
-4050000,3.4839e-11,
-3950000,3.5674e-11,
-3850000,3.6905e-11,
-3750000,3.8181e-11,
-3650000,3.8197e-11,
-3550000,3.939e-11,
-3450000,4.0176e-11,
-3350000,4.001e-11,
-3250000,4.1395e-11,
-3150000,4.1889e-11,
-3050000,4.3576e-11,
-2950000,4.3978e-11,
-2850000,4.5232e-11,
-2750000,4.5613e-11,
-2650000,4.5694e-11,
-2550000,4.5014e-11,
-2450000,4.6273e-11,
-2350000,4.7161e-11,
-2250000,4.7089e-11,
-2150000,4.7135e-11,
-2050000,4.9653e-11,
-1950000,5.2174e-11,
-1850000,5.5043e-11,
-1750000,5.3516e-11,
-1650000,5.0775e-11,
-1550000,5.0727e-11,
-1450000,4.821e-11,
-1350000,4.8958e-11,
-1250000,4.8572e-11,
-1150000,5.0016e-11,
-1050000,4.8353e-11,
-950000,4.6781e-11,
-850000,4.726e-11,
-750000,5.3394e-11,
-650000,5.778e-11,
-550000,5.1313e-11,
-450000,4.9035e-11,
-350000,4.8762e-11,
-250000,4.8466e-11,
-150000,4.942e-11,
-50000,4.971e-11,
50000,5.0672e-11,
150000,5.0951e-11,
