General parameters:
Start time: 2023              8             21             21             21      27.581543
Finish time: 2023              8             21             21             27      21.844946
Dwell time (ms): 3000.000000
Source chamber pressure: 2.00e+3
Differential chamber pressure: 7.97e-07
Sample chamber pressure: 3.84e-08
Example position (nm): -3714818.967375,238208.580618,-1000000.000000
Rotation angle (udeg): 72499840.000000
==========
Instrument status: 
0:Data Directory:/icon/data/2023_08_MoS2_5um_hbn_sub/
1:Sample:MoS2
2:Comments:no
3:PinholePlate:#C13
4:z_Zero:4200
5:Operator:djw77/nav31/kw570
==========
zscan inputs: 
z_sep:50000
z_range:200000 -5000000
data_path:/icon/data/2023_08_MoS2_5um_hbn_sub/
example_pos:-3714818.9674      238208.58062          -1000000
N_dwell:200
sampling_period:15
make_plots:0
m1:0.98976
m2:-0.0073571
==========
Detector params:
Sampling period (ms): 15.000000
N dwell: 200.000000
Filament current (A): 1.540000
Filament emission (mA): 1.734624
Solenoid current (A): NaN
Solenoid shim current (A): NaN
Lens params:
0  685
1  300
2  125
3      -0.002
4       -0.01
5       0.012
6         0.8
7         2.1
8         2.8
9  3000
10  1450
11         0.85
12   0
==========
Data:
z(nm),I(A)
200000,4.2533e-11,
100000,4.3926e-11,
0,4.2482e-11,
-100000,4.3376e-11,
-200000,4.3836e-11,
-300000,4.2777e-11,
-400000,4.4315e-11,
-500000,4.4842e-11,
-600000,4.412e-11,
-700000,4.5587e-11,
-800000,4.5566e-11,
-900000,4.6807e-11,
-1000000,4.6582e-11,
-1100000,4.778e-11,
-1200000,4.8249e-11,
-1300000,4.842e-11,
-1400000,4.8885e-11,
-1500000,4.7794e-11,
-1600000,4.8347e-11,
-1700000,4.845e-11,
-1800000,4.9695e-11,
-1900000,4.9159e-11,
-2000000,4.7937e-11,
-2100000,4.8527e-11,
-2200000,4.8173e-11,
-2300000,4.7536e-11,
-2400000,4.6659e-11,
-2500000,4.7312e-11,
-2600000,4.6124e-11,
-2700000,4.517e-11,
-2800000,4.5172e-11,
-2900000,4.4713e-11,
-3000000,4.4438e-11,
-3100000,4.3435e-11,
-3200000,4.3282e-11,
-3300000,4.2861e-11,
-3400000,4.153e-11,
-3500000,4.1294e-11,
-3600000,3.9831e-11,
-3700000,3.927e-11,
-3800000,3.9314e-11,
-3900000,3.7884e-11,
-4000000,3.7247e-11,
-4100000,3.6902e-11,
-4200000,3.5977e-11,
-4300000,3.5002e-11,
-4400000,3.473e-11,
-4500000,3.4616e-11,
-4600000,3.3392e-11,
-4700000,3.2071e-11,
-4800000,3.2386e-11,
-4900000,3.1708e-11,
-5000000,3.0513e-11,
-4950000,3.0908e-11,
-4850000,3.2118e-11,
-4750000,3.2268e-11,
-4650000,3.2432e-11,
-4550000,3.3603e-11,
-4450000,3.4239e-11,
-4350000,3.4665e-11,
-4250000,3.5081e-11,
-4150000,3.5824e-11,
-4050000,3.7328e-11,
-3950000,3.7686e-11,
-3850000,3.7988e-11,
-3750000,3.8974e-11,
-3650000,3.9297e-11,
-3550000,4.0258e-11,
-3450000,4.1441e-11,
-3350000,4.2467e-11,
-3250000,4.2094e-11,
-3150000,4.4273e-11,
-3050000,4.3219e-11,
-2950000,4.4791e-11,
-2850000,4.4161e-11,
-2750000,4.5971e-11,
-2650000,4.6683e-11,
-2550000,4.6415e-11,
-2450000,4.6869e-11,
-2350000,4.634e-11,
-2250000,4.881e-11,
-2150000,4.7436e-11,
-2050000,4.8635e-11,
-1950000,4.8575e-11,
-1850000,4.7752e-11,
-1750000,5.0065e-11,
-1650000,4.847e-11,
-1550000,4.8802e-11,
-1450000,4.7912e-11,
-1350000,4.8103e-11,
-1250000,4.7895e-11,
-1150000,4.7893e-11,
-1050000,4.7426e-11,
-950000,4.6714e-11,
-850000,4.6649e-11,
-750000,4.5291e-11,
-650000,4.5439e-11,
-550000,4.5062e-11,
-450000,4.3623e-11,
-350000,4.3459e-11,
-250000,4.3229e-11,
-150000,4.2049e-11,
-50000,4.1404e-11,
50000,4.1839e-11,
150000,4.2758e-11,
