General parameters:
Start time: 2023              8             22             13             12      36.225369
Finish time: 2023              8             22             13             18      30.671277
Dwell time (ms): 3000.000000
Source chamber pressure: 2.00e+3
Differential chamber pressure: 7.98e-07
Sample chamber pressure: 3.84e-08
Example position (nm): -3247799.821094,260948.609414,-1000000.000000
Rotation angle (udeg): 102499840.000000
==========
Instrument status: 
0:Data Directory:/icon/data/2023_08_MoS2_5um_hbn_sub/
1:Sample:MoS2
2:Comments:no
3:PinholePlate:#C13
4:z_Zero:4200
5:Operator:djw77/nav31/kw570
==========
zscan inputs: 
z_sep:50000
z_range:200000 -5000000
data_path:/icon/data/2023_08_MoS2_5um_hbn_sub/
example_pos:-3247799.8211      260948.60941          -1000000
N_dwell:200
sampling_period:15
make_plots:0
m1:0.98976
m2:-0.0073571
==========
Detector params:
Sampling period (ms): 15.000000
N dwell: 200.000000
Filament current (A): 1.540000
Filament emission (mA): 1.738728
Solenoid current (A): NaN
Solenoid shim current (A): NaN
Lens params:
0  685
1  300
2  125
3      -0.002
4       -0.01
5       0.012
6         0.8
7         2.1
8         2.8
9  3000
10  1450
11         0.85
12   0
==========
Data:
z(nm),I(A)
200000,4.4537e-11,
100000,4.5355e-11,
0,4.5051e-11,
-100000,4.4871e-11,
-200000,4.4575e-11,
-300000,4.5384e-11,
-400000,4.5234e-11,
-500000,4.615e-11,
-600000,4.6433e-11,
-700000,4.6796e-11,
-800000,4.7221e-11,
-900000,4.6812e-11,
-1000000,4.8006e-11,
-1100000,4.7494e-11,
-1200000,4.7401e-11,
-1300000,4.865e-11,
-1400000,4.8185e-11,
-1500000,4.6639e-11,
-1600000,4.8465e-11,
-1700000,4.8018e-11,
-1800000,4.7901e-11,
-1900000,4.8145e-11,
-2000000,4.7731e-11,
-2100000,4.7301e-11,
-2200000,4.7026e-11,
-2300000,4.7133e-11,
-2400000,4.6918e-11,
-2500000,4.5154e-11,
-2600000,4.5689e-11,
-2700000,4.5296e-11,
-2800000,4.4944e-11,
-2900000,4.3334e-11,
-3000000,4.3606e-11,
-3100000,4.2428e-11,
-3200000,4.1726e-11,
-3300000,4.1677e-11,
-3400000,4.1175e-11,
-3500000,4.0003e-11,
-3600000,3.9197e-11,
-3700000,3.9191e-11,
-3800000,3.8406e-11,
-3900000,3.7476e-11,
-4000000,3.677e-11,
-4100000,3.6118e-11,
-4200000,3.5261e-11,
-4300000,3.4271e-11,
-4400000,3.4597e-11,
-4500000,3.2928e-11,
-4600000,3.2847e-11,
-4700000,3.125e-11,
-4800000,3.1552e-11,
-4900000,3.0501e-11,
-5000000,3.0377e-11,
-4950000,3.1293e-11,
-4850000,3.1733e-11,
-4750000,3.1679e-11,
-4650000,3.2118e-11,
-4550000,3.2489e-11,
-4450000,3.3067e-11,
-4350000,3.4598e-11,
-4250000,3.443e-11,
-4150000,3.5396e-11,
-4050000,3.5671e-11,
-3950000,3.7314e-11,
-3850000,3.7771e-11,
-3750000,3.8688e-11,
-3650000,3.9951e-11,
-3550000,4.0688e-11,
-3450000,4.0272e-11,
-3350000,4.1275e-11,
-3250000,4.1414e-11,
-3150000,4.2786e-11,
-3050000,4.3359e-11,
-2950000,4.3953e-11,
-2850000,4.4737e-11,
-2750000,4.4722e-11,
-2650000,4.5059e-11,
-2550000,4.6049e-11,
-2450000,4.7138e-11,
-2350000,4.6938e-11,
-2250000,4.6762e-11,
-2150000,4.7779e-11,
-2050000,4.8064e-11,
-1950000,4.7165e-11,
-1850000,4.8802e-11,
-1750000,4.8175e-11,
-1650000,4.8695e-11,
-1550000,4.8201e-11,
-1450000,4.8479e-11,
-1350000,4.8387e-11,
-1250000,4.7038e-11,
-1150000,4.6955e-11,
-1050000,4.7332e-11,
-950000,4.6738e-11,
-850000,4.7874e-11,
-750000,4.6357e-11,
-650000,4.6156e-11,
-550000,4.5087e-11,
-450000,4.5612e-11,
-350000,4.5112e-11,
-250000,4.4461e-11,
-150000,4.4845e-11,
-50000,4.5472e-11,
50000,4.521e-11,
150000,4.4272e-11,
