General parameters:
Start time: 2023              8             18             19             39      17.480847
Finish time: 2023              8             18             19             45      14.166476
Dwell time (ms): 3000.000000
Source chamber pressure: 2.00e+3
Differential chamber pressure: 7.94e-07
Sample chamber pressure: 3.84e-08
Example position (nm): -3090287.684606,266059.231526,-1000000.000000
Rotation angle (udeg): 112500150.000000
==========
Instrument status: 
0:Data Directory:/icon/data/2023_08_MoS2_5um_hbn_sub/
1:Sample:MoS2
2:Comments:no
3:PinholePlate:#C13
4:z_Zero:4200
5:Operator:djw77/nav31/kw570
==========
zscan inputs: 
z_sep:50000
z_range:200000 -5000000
data_path:/icon/data/2023_08_MoS2_5um_hbn_sub/
example_pos:-3090287.6846      266059.23153          -1000000
N_dwell:200
sampling_period:15
make_plots:0
m1:0.98976
m2:-0.0073571
==========
Detector params:
Sampling period (ms): 15.000000
N dwell: 200.000000
Filament current (A): 1.540000
Filament emission (mA): 1.667592
Solenoid current (A): NaN
Solenoid shim current (A): NaN
Lens params:
0  685
1  300
2  125
3      -0.002
4       -0.01
5       0.012
6         0.8
7         2.1
8         2.8
9  3000
10  1450
11         0.85
12   0
==========
Data:
z(nm),I(A)
200000,4.0086e-11,
100000,4.0708e-11,
0,4.0359e-11,
-100000,4.0809e-11,
-200000,4.0986e-11,
-300000,4.0609e-11,
-400000,4.1684e-11,
-500000,4.1637e-11,
-600000,4.3281e-11,
-700000,4.2804e-11,
-800000,4.1927e-11,
-900000,4.1557e-11,
-1000000,4.3605e-11,
-1100000,4.3356e-11,
-1200000,4.284e-11,
-1300000,4.3316e-11,
-1400000,4.3032e-11,
-1500000,4.3793e-11,
-1600000,4.4809e-11,
-1700000,4.714e-11,
-1800000,4.5842e-11,
-1900000,4.6875e-11,
-2000000,4.3488e-11,
-2100000,4.2568e-11,
-2200000,4.261e-11,
-2300000,4.1729e-11,
-2400000,4.1291e-11,
-2500000,4.164e-11,
-2600000,4.1003e-11,
-2700000,3.9572e-11,
-2800000,4.0519e-11,
-2900000,3.9372e-11,
-3000000,3.9107e-11,
-3100000,3.9561e-11,
-3200000,3.6493e-11,
-3300000,3.7479e-11,
-3400000,3.643e-11,
-3500000,3.5863e-11,
-3600000,3.4925e-11,
-3700000,3.4792e-11,
-3800000,3.4041e-11,
-3900000,3.2931e-11,
-4000000,3.2785e-11,
-4100000,3.1607e-11,
-4200000,3.0239e-11,
-4300000,3.0349e-11,
-4400000,2.9814e-11,
-4500000,2.9194e-11,
-4600000,2.8967e-11,
-4700000,2.8263e-11,
-4800000,2.7711e-11,
-4900000,2.7178e-11,
-5000000,2.6934e-11,
-4950000,2.6637e-11,
-4850000,2.7718e-11,
-4750000,2.812e-11,
-4650000,2.9074e-11,
-4550000,2.9262e-11,
-4450000,2.9291e-11,
-4350000,2.9996e-11,
-4250000,3.0919e-11,
-4150000,3.112e-11,
-4050000,3.1437e-11,
-3950000,3.25e-11,
-3850000,3.251e-11,
-3750000,3.4546e-11,
-3650000,3.463e-11,
-3550000,3.4437e-11,
-3450000,3.6138e-11,
-3350000,3.609e-11,
-3250000,3.6643e-11,
-3150000,3.7874e-11,
-3050000,3.8638e-11,
-2950000,3.9437e-11,
-2850000,3.9103e-11,
-2750000,3.9753e-11,
-2650000,4.0299e-11,
-2550000,3.9986e-11,
-2450000,4.2053e-11,
-2350000,4.2231e-11,
-2250000,4.1288e-11,
-2150000,4.2154e-11,
-2050000,4.3807e-11,
-1950000,4.4261e-11,
-1850000,4.6019e-11,
-1750000,4.5929e-11,
-1650000,4.4959e-11,
-1550000,4.4724e-11,
-1450000,4.3318e-11,
-1350000,4.3864e-11,
-1250000,4.4181e-11,
-1150000,4.3729e-11,
-1050000,4.3193e-11,
-950000,4.1487e-11,
-850000,4.1898e-11,
-750000,4.2956e-11,
-650000,4.3136e-11,
-550000,4.3476e-11,
-450000,4.1673e-11,
-350000,4.0609e-11,
-250000,4.1497e-11,
-150000,4.1391e-11,
-50000,4.0597e-11,
50000,4.1318e-11,
150000,3.9615e-11,
