General parameters:
Start time: 2023              8             18             19              9       2.679419
Finish time: 2023              8             18             19             14       58.77366
Dwell time (ms): 3000.000000
Source chamber pressure: 2.00e+3
Differential chamber pressure: 7.94e-07
Sample chamber pressure: 3.83e-08
Example position (nm): -3286749.047331,291616.665971,-1000000.000000
Rotation angle (udeg): 100000175.000000
==========
Instrument status: 
0:Data Directory:/icon/data/2023_08_MoS2_5um_hbn_sub/
1:Sample:MoS2
2:Comments:no
3:PinholePlate:#C13
4:z_Zero:4200
5:Operator:djw77/nav31/kw570
==========
zscan inputs: 
z_sep:50000
z_range:200000 -5000000
data_path:/icon/data/2023_08_MoS2_5um_hbn_sub/
example_pos:-3286749.0473      291616.66597          -1000000
N_dwell:200
sampling_period:15
make_plots:0
m1:0.98976
m2:-0.0073571
==========
Detector params:
Sampling period (ms): 15.000000
N dwell: 200.000000
Filament current (A): 1.540000
Filament emission (mA): 1.666566
Solenoid current (A): NaN
Solenoid shim current (A): NaN
Lens params:
0  685
1  300
2  125
3      -0.002
4       -0.01
5       0.012
6         0.8
7         2.1
8         2.8
9  3000
10  1450
11         0.85
12   0
==========
Data:
z(nm),I(A)
200000,3.9329e-11,
100000,3.9971e-11,
0,4.0111e-11,
-100000,3.9218e-11,
-200000,3.9346e-11,
-300000,3.9989e-11,
-400000,4.0161e-11,
-500000,4.0149e-11,
-600000,4.1691e-11,
-700000,4.0549e-11,
-800000,4.0342e-11,
-900000,4.1286e-11,
-1000000,4.1865e-11,
-1100000,4.1206e-11,
-1200000,4.2695e-11,
-1300000,4.3167e-11,
-1400000,4.2265e-11,
-1500000,4.3397e-11,
-1600000,4.2671e-11,
-1700000,4.2185e-11,
-1800000,4.2517e-11,
-1900000,4.2188e-11,
-2000000,4.1159e-11,
-2100000,4.1673e-11,
-2200000,4.1679e-11,
-2300000,4.0677e-11,
-2400000,4.0487e-11,
-2500000,4.0542e-11,
-2600000,3.9699e-11,
-2700000,4.0016e-11,
-2800000,3.8852e-11,
-2900000,3.7839e-11,
-3000000,3.7353e-11,
-3100000,3.699e-11,
-3200000,3.6889e-11,
-3300000,3.5868e-11,
-3400000,3.5124e-11,
-3500000,3.4739e-11,
-3600000,3.4276e-11,
-3700000,3.3931e-11,
-3800000,3.2615e-11,
-3900000,3.2465e-11,
-4000000,3.2109e-11,
-4100000,3.0477e-11,
-4200000,3.0506e-11,
-4300000,3.0016e-11,
-4400000,2.89e-11,
-4500000,2.8834e-11,
-4600000,2.8558e-11,
-4700000,2.8086e-11,
-4800000,2.7702e-11,
-4900000,2.7184e-11,
-5000000,2.6491e-11,
-4950000,2.6315e-11,
-4850000,2.6957e-11,
-4750000,2.7184e-11,
-4650000,2.8694e-11,
-4550000,2.7926e-11,
-4450000,2.9667e-11,
-4350000,2.9549e-11,
-4250000,3.0454e-11,
-4150000,3.0977e-11,
-4050000,3.1359e-11,
-3950000,3.2609e-11,
-3850000,3.3305e-11,
-3750000,3.3114e-11,
-3650000,3.4214e-11,
-3550000,3.3949e-11,
-3450000,3.4531e-11,
-3350000,3.6132e-11,
-3250000,3.5962e-11,
-3150000,3.7104e-11,
-3050000,3.7365e-11,
-2950000,3.7253e-11,
-2850000,3.9424e-11,
-2750000,3.9199e-11,
-2650000,3.9729e-11,
-2550000,4.0823e-11,
-2450000,3.9827e-11,
-2350000,4.0165e-11,
-2250000,4.113e-11,
-2150000,4.1642e-11,
-2050000,4.2054e-11,
-1950000,4.1855e-11,
-1850000,4.2518e-11,
-1750000,4.2743e-11,
-1650000,4.242e-11,
-1550000,4.2931e-11,
-1450000,4.2566e-11,
-1350000,4.1602e-11,
-1250000,4.2596e-11,
-1150000,4.1892e-11,
-1050000,4.1903e-11,
-950000,4.1612e-11,
-850000,4.1134e-11,
-750000,4.2228e-11,
-650000,4.0969e-11,
-550000,3.9652e-11,
-450000,4.0059e-11,
-350000,4.0709e-11,
-250000,4.0296e-11,
-150000,3.9767e-11,
-50000,4.0278e-11,
50000,3.9525e-11,
150000,4.0709e-11,
