General parameters:
Start time: 2023              8             28              1             39       1.011517
Finish time: 2023              8             28              1             44      57.716117
Dwell time (ms): 3000.000000
Source chamber pressure: 2.00e+3
Differential chamber pressure: 6.36e-07
Sample chamber pressure: 3.62e-08
Example position (nm): -4133874.094819,-147917.409314,-1000000.000000
Rotation angle (udeg): 40000015.000000
==========
Instrument status: 
0:Data Directory:/icon/data/2023_08_MoS2_5um_hbn_sub/
1:Sample:MoS2
2:Comments:no
3:PinholePlate:#C13
4:z_Zero:4200
5:Operator:djw77/nav31/kw570
==========
zscan inputs: 
z_sep:50000
z_range:200000 -5000000
data_path:/icon/data/2023_08_MoS2_5um_hbn_sub/
example_pos:-4133874.0948     -147917.40931          -1000000
N_dwell:200
sampling_period:15
make_plots:1
m1:0.98976
m2:-0.0073571
==========
Detector params:
Sampling period (ms): 15.000000
N dwell: 200.000000
Filament current (A): 1.540000
Filament emission (mA): 1.901520
Solenoid current (A): NaN
Solenoid shim current (A): NaN
Lens params:
0  685
1  300
2  125
3      -0.002
4       -0.01
5       0.012
6         0.8
7         2.1
8         2.8
9  3000
10  1450
11         0.85
12   0
==========
Data:
z(nm),I(A)
200000,4.258e-11,
100000,4.2388e-11,
0,4.1773e-11,
-100000,4.2375e-11,
-200000,4.3255e-11,
-300000,4.2695e-11,
-400000,4.4129e-11,
-500000,4.3432e-11,
-600000,4.5232e-11,
-700000,4.5787e-11,
-800000,4.6043e-11,
-900000,4.6422e-11,
-1000000,4.8058e-11,
-1100000,4.6626e-11,
-1200000,4.8534e-11,
-1300000,4.859e-11,
-1400000,4.9211e-11,
-1500000,4.9443e-11,
-1600000,4.9112e-11,
-1700000,4.9589e-11,
-1800000,4.9276e-11,
-1900000,4.9857e-11,
-2000000,5.0319e-11,
-2100000,4.8309e-11,
-2200000,4.9812e-11,
-2300000,4.9254e-11,
-2400000,4.8395e-11,
-2500000,4.8834e-11,
-2600000,4.784e-11,
-2700000,4.6151e-11,
-2800000,4.5216e-11,
-2900000,4.5322e-11,
-3000000,4.3895e-11,
-3100000,4.3926e-11,
-3200000,4.3596e-11,
-3300000,4.3468e-11,
-3400000,4.1793e-11,
-3500000,4.1263e-11,
-3600000,4.0086e-11,
-3700000,3.9526e-11,
-3800000,3.8982e-11,
-3900000,3.8509e-11,
-4000000,3.7691e-11,
-4100000,3.7339e-11,
-4200000,3.6983e-11,
-4300000,3.6633e-11,
-4400000,3.4832e-11,
-4500000,3.5282e-11,
-4600000,3.4009e-11,
-4700000,3.3334e-11,
-4800000,3.2803e-11,
-4900000,3.2137e-11,
-5000000,3.1888e-11,
-4950000,3.2438e-11,
-4850000,3.2392e-11,
-4750000,3.3812e-11,
-4650000,3.4697e-11,
-4550000,3.432e-11,
-4450000,3.5566e-11,
-4350000,3.5578e-11,
-4250000,3.6927e-11,
-4150000,3.7288e-11,
-4050000,3.7484e-11,
-3950000,3.8089e-11,
-3850000,3.8341e-11,
-3750000,4.0378e-11,
-3650000,3.9956e-11,
-3550000,4.1633e-11,
-3450000,4.1085e-11,
-3350000,4.2024e-11,
-3250000,4.2483e-11,
-3150000,4.3958e-11,
-3050000,4.5032e-11,
-2950000,4.5547e-11,
-2850000,4.4959e-11,
-2750000,4.7166e-11,
-2650000,4.6684e-11,
-2550000,4.7836e-11,
-2450000,4.6929e-11,
-2350000,4.7946e-11,
-2250000,4.9532e-11,
-2150000,5.0072e-11,
-2050000,4.9919e-11,
-1950000,4.9586e-11,
-1850000,4.9008e-11,
-1750000,4.9332e-11,
-1650000,4.8758e-11,
-1550000,4.9967e-11,
-1450000,4.9807e-11,
-1350000,4.8916e-11,
-1250000,4.8438e-11,
-1150000,4.8319e-11,
-1050000,4.7879e-11,
-950000,4.7042e-11,
-850000,4.5577e-11,
-750000,4.5947e-11,
-650000,4.5366e-11,
-550000,4.5247e-11,
-450000,4.3701e-11,
-350000,4.3532e-11,
-250000,4.1896e-11,
-150000,4.2627e-11,
-50000,4.1732e-11,
50000,4.1706e-11,
150000,4.1223e-11,
