General parameters:
Start time: 2023              8             29              2             36      53.003365
Finish time: 2023              8             29              2             43      55.966223
Dwell time (ms): 3000.000000
Source chamber pressure: 2.00e+3
Differential chamber pressure: 6.06e-07
Sample chamber pressure: 3.58e-08
Example position (nm): -3944964.428208,86443.135214,-1000000.000000
Rotation angle (udeg): 57499580.000000
==========
Instrument status: 
0:Data Directory:/icon/data/2023_08_MoS2_5um_hbn_sub/
1:Sample:MoS2
2:Comments:no
3:PinholePlate:#C13
4:z_Zero:4200
5:Operator:djw77/nav31/kw570
==========
zscan inputs: 
z_sep:50000
z_range:200000 -6000000
data_path:/icon/data/2023_08_MoS2_5um_hbn_sub/
example_pos:-3944964.4282      86443.135214          -1000000
N_dwell:200
sampling_period:15
make_plots:1
m1:0.98976
m2:-0.0073571
==========
Detector params:
Sampling period (ms): 15.000000
N dwell: 200.000000
Filament current (A): 1.540000
Filament emission (mA): 1.918278
Solenoid current (A): NaN
Solenoid shim current (A): NaN
Lens params:
0  685
1  300
2  125
3      -0.002
4       -0.01
5       0.012
6         0.8
7         2.1
8         2.8
9  3000
10  1450
11         0.85
12   0
==========
Data:
z(nm),I(A)
200000,5.3695e-11,
100000,5.4046e-11,
0,5.3167e-11,
-100000,5.432e-11,
-200000,5.4143e-11,
-300000,5.4408e-11,
-400000,5.588e-11,
-500000,5.6073e-11,
-600000,5.663e-11,
-700000,5.7106e-11,
-800000,5.7937e-11,
-900000,5.882e-11,
-1000000,5.9673e-11,
-1100000,6.0383e-11,
-1200000,6.0751e-11,
-1300000,6.1824e-11,
-1400000,6.2704e-11,
-1500000,6.2566e-11,
-1600000,6.1284e-11,
-1700000,6.2407e-11,
-1800000,6.147e-11,
-1900000,6.1767e-11,
-2000000,6.1138e-11,
-2100000,6.1905e-11,
-2200000,6.1504e-11,
-2300000,6.0513e-11,
-2400000,5.9453e-11,
-2500000,5.9987e-11,
-2600000,6.0175e-11,
-2700000,5.7374e-11,
-2800000,5.5962e-11,
-2900000,5.6009e-11,
-3000000,5.618e-11,
-3100000,5.4817e-11,
-3200000,5.3827e-11,
-3300000,5.2813e-11,
-3400000,5.3415e-11,
-3500000,5.1967e-11,
-3600000,5.0236e-11,
-3700000,5.0275e-11,
-3800000,4.9336e-11,
-3900000,4.8869e-11,
-4000000,4.7728e-11,
-4100000,4.6378e-11,
-4200000,4.5344e-11,
-4300000,4.5165e-11,
-4400000,4.4182e-11,
-4500000,4.3208e-11,
-4600000,4.2494e-11,
-4700000,4.1394e-11,
-4800000,4.1336e-11,
-4900000,4.0014e-11,
-5000000,3.9784e-11,
-5100000,3.8373e-11,
-5200000,3.8783e-11,
-5300000,3.8718e-11,
-5400000,3.6547e-11,
-5500000,3.3604e-11,
-5600000,3.2747e-11,
-5700000,3.176e-11,
-5800000,3.2461e-11,
-5900000,3.4081e-11,
-6000000,3.406e-11,
-5950000,3.4431e-11,
-5850000,3.4184e-11,
-5750000,3.3932e-11,
-5650000,3.1961e-11,
-5550000,3.2706e-11,
-5450000,3.2967e-11,
-5350000,3.6422e-11,
-5250000,3.9001e-11,
-5150000,3.9975e-11,
-5050000,3.9062e-11,
-4950000,3.9537e-11,
-4850000,4.1025e-11,
-4750000,4.0561e-11,
-4650000,4.133e-11,
-4550000,4.2753e-11,
-4450000,4.3131e-11,
-4350000,4.4349e-11,
-4250000,4.5918e-11,
-4150000,4.6797e-11,
-4050000,4.7086e-11,
-3950000,4.7218e-11,
-3850000,4.9145e-11,
-3750000,5.0038e-11,
-3650000,5.0586e-11,
-3550000,5.1949e-11,
-3450000,5.1929e-11,
-3350000,5.2396e-11,
-3250000,5.3595e-11,
-3150000,5.4248e-11,
-3050000,5.5223e-11,
-2950000,5.6568e-11,
-2850000,5.6193e-11,
-2750000,5.7938e-11,
-2650000,5.821e-11,
-2550000,5.8063e-11,
-2450000,6.0393e-11,
-2350000,6.0538e-11,
-2250000,6.0273e-11,
-2150000,6.1174e-11,
-2050000,5.9579e-11,
-1950000,6.147e-11,
-1850000,6.0691e-11,
-1750000,6.2283e-11,
-1650000,6.2825e-11,
-1550000,6.2181e-11,
-1450000,6.165e-11,
-1350000,6.1713e-11,
-1250000,6.14e-11,
-1150000,6.0172e-11,
-1050000,5.8659e-11,
-950000,5.9218e-11,
-850000,6.0294e-11,
-750000,5.8987e-11,
-650000,5.6115e-11,
-550000,5.5476e-11,
-450000,5.6423e-11,
-350000,5.4393e-11,
-250000,5.4897e-11,
-150000,5.4171e-11,
-50000,5.3636e-11,
50000,5.2985e-11,
150000,5.2418e-11,
