General parameters:
Start time: 2023              8             29              3             19      45.850849
Finish time: 2023              8             29              3             26      49.224975
Dwell time (ms): 3000.000000
Source chamber pressure: 2.00e+3
Differential chamber pressure: 6.06e-07
Sample chamber pressure: 3.61e-08
Example position (nm): -3741175.965333,221355.746198,-1000000.000000
Rotation angle (udeg): 72500345.000000
==========
Instrument status: 
0:Data Directory:/icon/data/2023_08_MoS2_5um_hbn_sub/
1:Sample:MoS2
2:Comments:no
3:PinholePlate:#C13
4:z_Zero:4200
5:Operator:djw77/nav31/kw570
==========
zscan inputs: 
z_sep:50000
z_range:200000 -6000000
data_path:/icon/data/2023_08_MoS2_5um_hbn_sub/
example_pos:-3741175.9653       221355.7462          -1000000
N_dwell:200
sampling_period:15
make_plots:1
m1:0.98976
m2:-0.0073571
==========
Detector params:
Sampling period (ms): 15.000000
N dwell: 200.000000
Filament current (A): 1.540000
Filament emission (mA): 1.921698
Solenoid current (A): NaN
Solenoid shim current (A): NaN
Lens params:
0  685
1  300
2  125
3      -0.002
4       -0.01
5       0.012
6         0.8
7         2.1
8         2.8
9  3000
10  1450
11         0.85
12   0
==========
Data:
z(nm),I(A)
200000,2.3579e-10,
100000,2.1238e-10,
0,1.8097e-10,
-100000,1.5457e-10,
-200000,1.2444e-10,
-300000,1.0102e-10,
-400000,8.8219e-11,
-500000,8.3861e-11,
-600000,9.1385e-11,
-700000,1.1949e-10,
-800000,1.791e-10,
-900000,2.5609e-10,
-1000000,2.888e-10,
-1100000,2.7075e-10,
-1200000,2.0803e-10,
-1300000,1.4933e-10,
-1400000,1.1584e-10,
-1500000,9.9965e-11,
-1600000,1.0083e-10,
-1700000,1.1383e-10,
-1800000,1.3026e-10,
-1900000,1.4051e-10,
-2000000,1.339e-10,
-2100000,1.1422e-10,
-2200000,9.196e-11,
-2300000,7.925e-11,
-2400000,7.7158e-11,
-2500000,8.1878e-11,
-2600000,9.2828e-11,
-2700000,1.075e-10,
-2800000,1.2188e-10,
-2900000,1.2621e-10,
-3000000,1.2002e-10,
-3100000,1.0379e-10,
-3200000,8.4691e-11,
-3300000,7.0996e-11,
-3400000,6.3246e-11,
-3500000,5.8308e-11,
-3600000,5.6907e-11,
-3700000,5.5142e-11,
-3800000,5.4992e-11,
-3900000,5.568e-11,
-4000000,5.4759e-11,
-4100000,5.409e-11,
-4200000,5.0861e-11,
-4300000,4.6826e-11,
-4400000,4.489e-11,
-4500000,4.2296e-11,
-4600000,4.0574e-11,
-4700000,3.9466e-11,
-4800000,3.7813e-11,
-4900000,3.5628e-11,
-5000000,3.5935e-11,
-5100000,3.4588e-11,
-5200000,3.4189e-11,
-5300000,3.4257e-11,
-5400000,3.3285e-11,
-5500000,3.3277e-11,
-5600000,3.3273e-11,
-5700000,3.1478e-11,
-5800000,3.0881e-11,
-5900000,3.0724e-11,
-6000000,3.0261e-11,
-5950000,2.994e-11,
-5850000,3.106e-11,
-5750000,3.1352e-11,
-5650000,3.2745e-11,
-5550000,3.3661e-11,
-5450000,3.2302e-11,
-5350000,3.3487e-11,
-5250000,3.2957e-11,
-5150000,3.3723e-11,
-5050000,3.5637e-11,
-4950000,3.5944e-11,
-4850000,3.7361e-11,
-4750000,3.7497e-11,
-4650000,3.8155e-11,
-4550000,4.1334e-11,
-4450000,4.3298e-11,
-4350000,4.5364e-11,
-4250000,4.8143e-11,
-4150000,5.0246e-11,
-4050000,5.3449e-11,
-3950000,5.3301e-11,
-3850000,5.5624e-11,
-3750000,5.4908e-11,
-3650000,5.647e-11,
-3550000,5.678e-11,
-3450000,6.1165e-11,
-3350000,6.6495e-11,
-3250000,7.6253e-11,
-3150000,9.442e-11,
-3050000,1.1143e-10,
-2950000,1.2483e-10,
-2850000,1.288e-10,
-2750000,1.1892e-10,
-2650000,1.0329e-10,
-2550000,8.9655e-11,
-2450000,8.01e-11,
-2350000,7.7996e-11,
-2250000,8.5184e-11,
-2150000,1.0101e-10,
-2050000,1.2386e-10,
-1950000,1.383e-10,
-1850000,1.3947e-10,
-1750000,1.2683e-10,
-1650000,1.0901e-10,
-1550000,1.0001e-10,
-1450000,1.0448e-10,
-1350000,1.2333e-10,
-1250000,1.665e-10,
-1150000,2.3945e-10,
-1050000,2.8435e-10,
-950000,2.8629e-10,
-850000,2.3287e-10,
-750000,1.5562e-10,
-650000,1.0713e-10,
-550000,8.7184e-11,
-450000,8.3859e-11,
-350000,9.3739e-11,
-250000,1.0847e-10,
-150000,1.3518e-10,
-50000,1.6245e-10,
50000,1.8995e-10,
150000,2.1522e-10,
