General parameters:
Start time: 2023              8             28              1             14      56.091306
Finish time: 2023              8             28              1             20      51.466978
Dwell time (ms): 3000.000000
Source chamber pressure: 2.00e+3
Differential chamber pressure: 6.36e-07
Sample chamber pressure: 3.62e-08
Example position (nm): -4204604.776092,-299227.204326,-1000000.000000
Rotation angle (udeg): 30000380.000000
==========
Instrument status: 
0:Data Directory:/icon/data/2023_08_MoS2_5um_hbn_sub/
1:Sample:MoS2
2:Comments:no
3:PinholePlate:#C13
4:z_Zero:4200
5:Operator:djw77/nav31/kw570
==========
zscan inputs: 
z_sep:50000
z_range:200000 -5000000
data_path:/icon/data/2023_08_MoS2_5um_hbn_sub/
example_pos:-4204604.7761     -299227.20433          -1000000
N_dwell:200
sampling_period:15
make_plots:1
m1:0.98976
m2:-0.0073571
==========
Detector params:
Sampling period (ms): 15.000000
N dwell: 200.000000
Filament current (A): 1.540000
Filament emission (mA): 1.898100
Solenoid current (A): NaN
Solenoid shim current (A): NaN
Lens params:
0  685
1  300
2  125
3      -0.002
4       -0.01
5       0.012
6         0.8
7         2.1
8         2.8
9  3000
10  1450
11         0.85
12   0
==========
Data:
z(nm),I(A)
200000,4.2626e-11,
100000,4.2398e-11,
0,4.2222e-11,
-100000,4.1548e-11,
-200000,4.209e-11,
-300000,4.2596e-11,
-400000,4.4683e-11,
-500000,4.3976e-11,
-600000,4.562e-11,
-700000,4.5651e-11,
-800000,4.6454e-11,
-900000,4.7141e-11,
-1000000,4.6091e-11,
-1100000,4.7269e-11,
-1200000,4.8888e-11,
-1300000,4.9857e-11,
-1400000,4.9766e-11,
-1500000,4.8889e-11,
-1600000,4.9406e-11,
-1700000,4.9859e-11,
-1800000,4.9411e-11,
-1900000,4.9388e-11,
-2000000,4.8876e-11,
-2100000,4.9175e-11,
-2200000,4.8939e-11,
-2300000,4.8132e-11,
-2400000,4.8022e-11,
-2500000,4.7808e-11,
-2600000,4.8091e-11,
-2700000,4.6942e-11,
-2800000,4.6027e-11,
-2900000,4.5423e-11,
-3000000,4.4484e-11,
-3100000,4.4739e-11,
-3200000,4.4958e-11,
-3300000,4.3516e-11,
-3400000,4.2817e-11,
-3500000,4.1119e-11,
-3600000,4.1192e-11,
-3700000,3.9411e-11,
-3800000,3.9317e-11,
-3900000,3.8367e-11,
-4000000,3.8299e-11,
-4100000,3.7381e-11,
-4200000,3.667e-11,
-4300000,3.5381e-11,
-4400000,3.4779e-11,
-4500000,3.5549e-11,
-4600000,3.4708e-11,
-4700000,3.2317e-11,
-4800000,3.337e-11,
-4900000,3.26e-11,
-5000000,3.2001e-11,
-4950000,3.2237e-11,
-4850000,3.3166e-11,
-4750000,3.3532e-11,
-4650000,3.3227e-11,
-4550000,3.4632e-11,
-4450000,3.4541e-11,
-4350000,3.6028e-11,
-4250000,3.6495e-11,
-4150000,3.6938e-11,
-4050000,3.7343e-11,
-3950000,3.7267e-11,
-3850000,3.8443e-11,
-3750000,3.9669e-11,
-3650000,4.029e-11,
-3550000,4.06e-11,
-3450000,4.0849e-11,
-3350000,4.2367e-11,
-3250000,4.1919e-11,
-3150000,4.3046e-11,
-3050000,4.5407e-11,
-2950000,4.447e-11,
-2850000,4.5016e-11,
-2750000,4.5888e-11,
-2650000,4.6371e-11,
-2550000,4.7075e-11,
-2450000,4.8222e-11,
-2350000,4.7307e-11,
-2250000,4.8568e-11,
-2150000,4.9639e-11,
-2050000,4.9678e-11,
-1950000,4.9655e-11,
-1850000,4.9127e-11,
-1750000,4.8389e-11,
-1650000,4.9806e-11,
-1550000,4.8903e-11,
-1450000,4.8773e-11,
-1350000,4.9631e-11,
-1250000,4.8485e-11,
-1150000,4.7424e-11,
-1050000,4.7587e-11,
-950000,4.6873e-11,
-850000,4.7005e-11,
-750000,4.5953e-11,
-650000,4.5035e-11,
-550000,4.4878e-11,
-450000,4.4439e-11,
-350000,4.324e-11,
-250000,4.2595e-11,
-150000,4.2758e-11,
-50000,4.1374e-11,
50000,4.1444e-11,
150000,4.1332e-11,
