General parameters:
Start time: 2023              8             16             17              5      26.241237
Finish time: 2023              8             16             17             20       29.75444
Dwell time (ms): 3750.000000
Source chamber pressure: 2.00e+3
Differential chamber pressure: 7.97e-07
Sample chamber pressure: 3.84e-08
Example position (nm): -3484000.000000,275000.000000,-1000000.000000
Rotation angle (udeg): 90000125.000000
==========
Instrument status: 
0:Data Directory:/icon/data/2023_08_MoS2_5um_hbn_sub/
1:Sample:MoS2
2:Comments:no
3:PinholePlate:#C13
4:z_Zero:4200
5:Operator:djw77/nav31/kw570
==========
zscan inputs: 
z_sep:30000
z_range:500000 -6000000
data_path:/icon/data/2023_08_MoS2_5um_hbn_sub/
example_pos:-3484000   275000 -1000000
N_dwell:250
sampling_period:15
make_plots:1
m1:0.98534
m2:-0.0012405
==========
Detector params:
Sampling period (ms): 15.000000
N dwell: 250.000000
Filament current (A): 1.540000
Filament emission (mA): 1.652886
Solenoid current (A): NaN
Solenoid shim current (A): NaN
Lens params:
0  685
1  300
2  125
3      -0.002
4       -0.01
5       0.012
6         0.8
7         2.1
8         2.8
9  3000
10  1450
11         0.85
12   0
==========
Data:
z(nm),I(A)
500000,8.9447e-11,
440000,9.0197e-11,
380000,9.2172e-11,
320000,9.2313e-11,
260000,9.2981e-11,
200000,9.3247e-11,
140000,9.2948e-11,
80000,9.3164e-11,
20000,9.476e-11,
-40000,9.2577e-11,
-100000,9.2112e-11,
-160000,9.4207e-11,
-220000,9.1658e-11,
-280000,9.2734e-11,
-340000,9.368e-11,
-400000,9.4087e-11,
-460000,9.4476e-11,
-520000,9.5362e-11,
-580000,9.708e-11,
-640000,9.75e-11,
-700000,1.0129e-10,
-760000,1.0436e-10,
-820000,1.0909e-10,
-880000,1.1328e-10,
-940000,1.1522e-10,
-1000000,1.1732e-10,
-1060000,1.1614e-10,
-1120000,1.1392e-10,
-1180000,1.1081e-10,
-1240000,1.0881e-10,
-1300000,1.0512e-10,
-1360000,1.047e-10,
-1420000,1.0303e-10,
-1480000,1.0158e-10,
-1540000,1.0167e-10,
-1600000,1.0103e-10,
-1660000,1.0177e-10,
-1720000,1.0141e-10,
-1780000,9.9647e-11,
-1840000,1.0097e-10,
-1900000,9.9131e-11,
-1960000,9.9809e-11,
-2020000,1.0119e-10,
-2080000,9.9696e-11,
-2140000,9.8325e-11,
-2200000,9.8296e-11,
-2260000,9.8419e-11,
-2320000,9.901e-11,
-2380000,9.8938e-11,
-2440000,9.8807e-11,
-2500000,9.7699e-11,
-2560000,9.6842e-11,
-2620000,9.7995e-11,
-2680000,9.6794e-11,
-2740000,9.4686e-11,
-2800000,9.3575e-11,
-2860000,9.1362e-11,
-2920000,9.0101e-11,
-2980000,8.9478e-11,
-3040000,8.7142e-11,
-3100000,8.7313e-11,
-3160000,8.5593e-11,
-3220000,8.5775e-11,
-3280000,8.4675e-11,
-3340000,8.3711e-11,
-3400000,8.4229e-11,
-3460000,8.1688e-11,
-3520000,8.2909e-11,
-3580000,8.1657e-11,
-3640000,8.0421e-11,
-3700000,8.1194e-11,
-3760000,7.9452e-11,
-3820000,7.8012e-11,
-3880000,7.6023e-11,
-3940000,7.6886e-11,
-4000000,7.5915e-11,
-4060000,7.4287e-11,
-4120000,7.3764e-11,
-4180000,7.3485e-11,
-4240000,7.2899e-11,
-4300000,7.3974e-11,
-4360000,7.2439e-11,
-4420000,7.206e-11,
-4480000,7.1066e-11,
-4540000,7.0308e-11,
-4600000,7.033e-11,
-4660000,6.9399e-11,
-4720000,6.8332e-11,
-4780000,6.8165e-11,
-4840000,6.6525e-11,
-4900000,6.6818e-11,
-4960000,6.7174e-11,
-5020000,6.5524e-11,
-5080000,6.5402e-11,
-5140000,6.3939e-11,
-5200000,6.3621e-11,
-5260000,6.4001e-11,
-5320000,6.2481e-11,
-5380000,6.4302e-11,
-5440000,6.1382e-11,
-5500000,6.2182e-11,
-5560000,6.1771e-11,
-5620000,6.0545e-11,
-5680000,6.0324e-11,
-5740000,5.9295e-11,
-5800000,5.944e-11,
-5860000,5.9414e-11,
-5920000,5.9814e-11,
-5980000,5.8842e-11,
-5950000,5.944e-11,
-5890000,5.9965e-11,
-5830000,5.8912e-11,
-5770000,5.8529e-11,
-5710000,6.0371e-11,
-5650000,6.091e-11,
-5590000,6.1578e-11,
-5530000,6.2236e-11,
-5470000,6.1316e-11,
-5410000,6.1666e-11,
-5350000,6.2779e-11,
-5290000,6.339e-11,
-5230000,6.401e-11,
-5170000,6.3136e-11,
-5110000,6.4228e-11,
-5050000,6.5439e-11,
-4990000,6.5668e-11,
-4930000,6.63e-11,
-4870000,6.7603e-11,
-4810000,6.7481e-11,
-4750000,6.812e-11,
-4690000,7.0148e-11,
-4630000,6.9296e-11,
-4570000,6.9168e-11,
-4510000,7.0908e-11,
-4450000,7.0547e-11,
-4390000,7.1671e-11,
-4330000,7.2939e-11,
-4270000,7.3488e-11,
-4210000,7.4602e-11,
-4150000,7.4263e-11,
-4090000,7.4927e-11,
-4030000,7.4812e-11,
-3970000,7.6401e-11,
-3910000,7.6698e-11,
-3850000,7.7926e-11,
-3790000,7.8901e-11,
-3730000,7.8739e-11,
-3670000,8.0731e-11,
-3610000,8.2043e-11,
-3550000,8.2153e-11,
-3490000,8.1656e-11,
-3430000,8.2576e-11,
-3370000,8.4682e-11,
-3310000,8.4886e-11,
-3250000,8.5794e-11,
-3190000,8.5409e-11,
-3130000,8.6585e-11,
-3070000,8.7434e-11,
-3010000,8.8789e-11,
-2950000,8.823e-11,
-2890000,8.9824e-11,
-2830000,9.0762e-11,
-2770000,9.435e-11,
-2710000,9.5393e-11,
-2650000,9.6825e-11,
-2590000,9.7382e-11,
-2530000,9.877e-11,
-2470000,9.8514e-11,
-2410000,9.9368e-11,
-2350000,9.8796e-11,
-2290000,9.8547e-11,
-2230000,9.9302e-11,
-2170000,9.8326e-11,
-2110000,9.886e-11,
-2050000,1.0037e-10,
-1990000,1.0164e-10,
-1930000,9.8622e-11,
-1870000,1.0102e-10,
-1810000,9.948e-11,
-1750000,1.0165e-10,
-1690000,9.9939e-11,
-1630000,1.0218e-10,
-1570000,1.0078e-10,
-1510000,1.0278e-10,
-1450000,1.0136e-10,
-1390000,1.0398e-10,
-1330000,1.0471e-10,
-1270000,1.0765e-10,
-1210000,1.1013e-10,
-1150000,1.1274e-10,
-1090000,1.1449e-10,
-1030000,1.1611e-10,
-970000,1.1659e-10,
-910000,1.167e-10,
-850000,1.1171e-10,
-790000,1.0698e-10,
-730000,1.0114e-10,
-670000,9.9118e-11,
-610000,9.6445e-11,
-550000,9.635e-11,
-490000,9.3425e-11,
-430000,9.3684e-11,
-370000,9.2782e-11,
-310000,9.1547e-11,
-250000,9.2668e-11,
-190000,9.243e-11,
-130000,9.2004e-11,
-70000,9.1716e-11,
-10000,9.1161e-11,
50000,9.2795e-11,
110000,9.3878e-11,
170000,9.4225e-11,
230000,9.3472e-11,
290000,9.2933e-11,
350000,9.1837e-11,
410000,9.1108e-11,
470000,9.023e-11,
