General parameters:
Start time: 2023              8             28              5             58      21.341647
Finish time: 2023              8             28              6              4      18.202527
Dwell time (ms): 3000.000000
Source chamber pressure: 2.00e+3
Differential chamber pressure: 6.31e-07
Sample chamber pressure: 3.62e-08
Example position (nm): -2597430.238623,18884.654640,-1000000.000000
Rotation angle (udeg): 147500065.000000
==========
Instrument status: 
0:Data Directory:/icon/data/2023_08_MoS2_5um_hbn_sub/
1:Sample:MoS2
2:Comments:no
3:PinholePlate:#C13
4:z_Zero:4200
5:Operator:djw77/nav31/kw570
==========
zscan inputs: 
z_sep:50000
z_range:200000 -5000000
data_path:/icon/data/2023_08_MoS2_5um_hbn_sub/
example_pos:-2597430.2386       18884.65464          -1000000
N_dwell:200
sampling_period:15
make_plots:1
m1:0.98976
m2:-0.0073571
==========
Detector params:
Sampling period (ms): 15.000000
N dwell: 200.000000
Filament current (A): 1.540000
Filament emission (mA): 1.901520
Solenoid current (A): NaN
Solenoid shim current (A): NaN
Lens params:
0  685
1  300
2  125
3      -0.002
4       -0.01
5       0.012
6         0.8
7         2.1
8         2.8
9  3000
10  1450
11         0.85
12   0
==========
Data:
z(nm),I(A)
200000,7.2364e-11,
100000,6.8297e-11,
0,6.4772e-11,
-100000,6.198e-11,
-200000,5.9078e-11,
-300000,5.8749e-11,
-400000,6.1628e-11,
-500000,6.9007e-11,
-600000,8.5834e-11,
-700000,1.1219e-10,
-800000,1.2694e-10,
-900000,1.1104e-10,
-1000000,8.6899e-11,
-1100000,7.11e-11,
-1200000,6.3286e-11,
-1300000,5.6475e-11,
-1400000,5.2846e-11,
-1500000,5.1505e-11,
-1600000,5.1599e-11,
-1700000,5.0421e-11,
-1800000,5.1418e-11,
-1900000,5.3741e-11,
-2000000,5.8907e-11,
-2100000,6.7495e-11,
-2200000,7.9771e-11,
-2300000,8.674e-11,
-2400000,8.576e-11,
-2500000,7.6318e-11,
-2600000,6.4683e-11,
-2700000,5.4776e-11,
-2800000,5.246e-11,
-2900000,4.9993e-11,
-3000000,5.3182e-11,
-3100000,5.552e-11,
-3200000,5.94e-11,
-3300000,6.0699e-11,
-3400000,5.7964e-11,
-3500000,5.3577e-11,
-3600000,4.7019e-11,
-3700000,4.19e-11,
-3800000,3.802e-11,
-3900000,3.6225e-11,
-4000000,3.5248e-11,
-4100000,3.3838e-11,
-4200000,3.229e-11,
-4300000,3.2481e-11,
-4400000,3.1424e-11,
-4500000,3.1437e-11,
-4600000,3.0679e-11,
-4700000,3.0224e-11,
-4800000,2.9747e-11,
-4900000,2.8945e-11,
-5000000,2.817e-11,
-4950000,2.7668e-11,
-4850000,2.9278e-11,
-4750000,2.9331e-11,
-4650000,3.0007e-11,
-4550000,3.0676e-11,
-4450000,2.9965e-11,
-4350000,3.1742e-11,
-4250000,3.32e-11,
-4150000,3.3518e-11,
-4050000,3.3813e-11,
-3950000,3.6328e-11,
-3850000,3.7894e-11,
-3750000,3.8964e-11,
-3650000,4.4744e-11,
-3550000,4.9838e-11,
-3450000,5.5909e-11,
-3350000,6.1291e-11,
-3250000,6.2085e-11,
-3150000,6.0051e-11,
-3050000,5.5674e-11,
-2950000,5.0452e-11,
-2850000,5.0934e-11,
-2750000,5.1421e-11,
-2650000,5.8234e-11,
-2550000,6.9026e-11,
-2450000,8.1202e-11,
-2350000,8.9344e-11,
-2250000,8.6337e-11,
-2150000,7.6442e-11,
-2050000,6.1827e-11,
-1950000,5.6305e-11,
-1850000,5.209e-11,
-1750000,5.061e-11,
-1650000,5.0447e-11,
-1550000,5.1885e-11,
-1450000,5.2402e-11,
-1350000,5.432e-11,
-1250000,5.8801e-11,
-1150000,6.5061e-11,
-1050000,7.5192e-11,
-950000,9.5165e-11,
-850000,1.2133e-10,
-750000,1.2758e-10,
-650000,1.0032e-10,
-550000,7.7183e-11,
-450000,6.5831e-11,
-350000,5.9049e-11,
-250000,5.8322e-11,
-150000,6.0554e-11,
-50000,6.1719e-11,
50000,6.6037e-11,
150000,7.0234e-11,
