General parameters:
Start time: 2023              8             19             14             50      58.549383
Finish time: 2023              8             19             14             56      57.532497
Dwell time (ms): 3000.000000
Source chamber pressure: 2.00e+3
Differential chamber pressure: 7.97e-07
Sample chamber pressure: 3.88e-08
Example position (nm): -3766631.962149,170754.735872,-1000000.000000
Rotation angle (udeg): 69999545.000000
==========
Instrument status: 
0:Data Directory:/icon/data/2023_08_MoS2_5um_hbn_sub/
1:Sample:MoS2
2:Comments:no
3:PinholePlate:#C13
4:z_Zero:4200
5:Operator:djw77/nav31/kw570
==========
zscan inputs: 
z_sep:50000
z_range:200000 -5000000
data_path:/icon/data/2023_08_MoS2_5um_hbn_sub/
example_pos:-3766631.9621      170754.73587          -1000000
N_dwell:200
sampling_period:15
make_plots:0
m1:0.98976
m2:-0.0073571
==========
Detector params:
Sampling period (ms): 15.000000
N dwell: 200.000000
Filament current (A): 1.540000
Filament emission (mA): 1.682298
Solenoid current (A): NaN
Solenoid shim current (A): NaN
Lens params:
0  685
1  300
2  125
3      -0.002
4       -0.01
5       0.012
6         0.8
7         2.1
8         2.8
9  3000
10  1450
11         0.85
12   0
==========
Data:
z(nm),I(A)
200000,1.1635e-10,
100000,1.076e-10,
0,9.0034e-11,
-100000,7.7989e-11,
-200000,6.7075e-11,
-300000,5.8667e-11,
-400000,5.464e-11,
-500000,5.2427e-11,
-600000,5.5788e-11,
-700000,6.8401e-11,
-800000,8.9854e-11,
-900000,1.2472e-10,
-1000000,1.412e-10,
-1100000,1.4003e-10,
-1200000,1.1327e-10,
-1300000,8.4671e-11,
-1400000,7.1789e-11,
-1500000,6.4914e-11,
-1600000,6.5887e-11,
-1700000,7.1803e-11,
-1800000,8.2141e-11,
-1900000,8.6977e-11,
-2000000,8.4916e-11,
-2100000,7.7822e-11,
-2200000,6.3913e-11,
-2300000,5.4015e-11,
-2400000,5.341e-11,
-2500000,5.7096e-11,
-2600000,6.6176e-11,
-2700000,8.0696e-11,
-2800000,9.3869e-11,
-2900000,9.8891e-11,
-3000000,9.3317e-11,
-3100000,8.0585e-11,
-3200000,6.5137e-11,
-3300000,5.2258e-11,
-3400000,4.5186e-11,
-3500000,4.1593e-11,
-3600000,4.0782e-11,
-3700000,4.1148e-11,
-3800000,4.2317e-11,
-3900000,4.3349e-11,
-4000000,4.4349e-11,
-4100000,4.3494e-11,
-4200000,4.1343e-11,
-4300000,3.982e-11,
-4400000,3.4571e-11,
-4500000,3.3039e-11,
-4600000,2.9718e-11,
-4700000,2.7699e-11,
-4800000,2.6168e-11,
-4900000,2.5804e-11,
-5000000,2.6018e-11,
-4950000,2.4833e-11,
-4850000,2.5585e-11,
-4750000,2.6643e-11,
-4650000,2.8716e-11,
-4550000,2.9157e-11,
-4450000,3.2202e-11,
-4350000,3.5467e-11,
-4250000,3.9232e-11,
-4150000,4.2813e-11,
-4050000,4.3762e-11,
-3950000,4.416e-11,
-3850000,4.3016e-11,
-3750000,4.1505e-11,
-3650000,4.0183e-11,
-3550000,4.0173e-11,
-3450000,4.3088e-11,
-3350000,4.8012e-11,
-3250000,5.7542e-11,
-3150000,7.2006e-11,
-3050000,8.7896e-11,
-2950000,9.733e-11,
-2850000,9.864e-11,
-2750000,9.0003e-11,
-2650000,7.5969e-11,
-2550000,6.2216e-11,
-2450000,5.5771e-11,
-2350000,5.3953e-11,
-2250000,5.7492e-11,
-2150000,6.9252e-11,
-2050000,8.0348e-11,
-1950000,8.7557e-11,
-1850000,8.6988e-11,
-1750000,7.7431e-11,
-1650000,6.8106e-11,
-1550000,6.3475e-11,
-1450000,6.46e-11,
-1350000,7.347e-11,
-1250000,9.2103e-11,
-1150000,1.2431e-10,
-1050000,1.3767e-10,
-950000,1.3324e-10,
-850000,1.1069e-10,
-750000,7.9352e-11,
-650000,6.2377e-11,
-550000,5.5146e-11,
-450000,5.2899e-11,
-350000,5.4872e-11,
-250000,6.0764e-11,
-150000,7.1404e-11,
-50000,8.2859e-11,
50000,9.6018e-11,
150000,1.1322e-10,
