General parameters:
Start time: 2023              8             21             16             18      46.395635
Finish time: 2023              8             21             16             24       40.44492
Dwell time (ms): 3000.000000
Source chamber pressure: 2.00e+3
Differential chamber pressure: 7.98e-07
Sample chamber pressure: 3.79e-08
Example position (nm): -3139945.470952,287786.810467,-1000000.000000
Rotation angle (udeg): 112499735.000000
==========
Instrument status: 
0:Data Directory:/icon/data/2023_08_MoS2_5um_hbn_sub/
1:Sample:MoS2
2:Comments:no
3:PinholePlate:#C13
4:z_Zero:4200
5:Operator:djw77/nav31/kw570
==========
zscan inputs: 
z_sep:50000
z_range:200000 -5000000
data_path:/icon/data/2023_08_MoS2_5um_hbn_sub/
example_pos:-3139945.471      287786.81047          -1000000
N_dwell:200
sampling_period:15
make_plots:0
m1:0.98976
m2:-0.0073571
==========
Detector params:
Sampling period (ms): 15.000000
N dwell: 200.000000
Filament current (A): 1.540000
Filament emission (mA): 1.741806
Solenoid current (A): NaN
Solenoid shim current (A): NaN
Lens params:
0  685
1  300
2  125
3      -0.002
4       -0.01
5       0.012
6         0.8
7         2.1
8         2.8
9  3000
10  1450
11         0.85
12   0
==========
Data:
z(nm),I(A)
200000,4.4535e-11,
100000,4.4979e-11,
0,4.5752e-11,
-100000,4.4983e-11,
-200000,4.6122e-11,
-300000,4.5882e-11,
-400000,4.5795e-11,
-500000,4.6802e-11,
-600000,4.6152e-11,
-700000,4.7547e-11,
-800000,4.7638e-11,
-900000,4.7863e-11,
-1000000,4.7919e-11,
-1100000,4.7911e-11,
-1200000,4.8011e-11,
-1300000,4.7681e-11,
-1400000,4.8597e-11,
-1500000,4.8663e-11,
-1600000,4.8079e-11,
-1700000,4.8591e-11,
-1800000,4.8401e-11,
-1900000,4.7194e-11,
-2000000,4.7701e-11,
-2100000,4.7387e-11,
-2200000,4.6643e-11,
-2300000,4.696e-11,
-2400000,4.6614e-11,
-2500000,4.756e-11,
-2600000,4.5191e-11,
-2700000,4.5099e-11,
-2800000,4.3777e-11,
-2900000,4.3993e-11,
-3000000,4.3444e-11,
-3100000,4.184e-11,
-3200000,4.2555e-11,
-3300000,4.1354e-11,
-3400000,4.1174e-11,
-3500000,3.9892e-11,
-3600000,3.914e-11,
-3700000,3.8867e-11,
-3800000,3.8414e-11,
-3900000,3.7478e-11,
-4000000,3.704e-11,
-4100000,3.5928e-11,
-4200000,3.5582e-11,
-4300000,3.433e-11,
-4400000,3.333e-11,
-4500000,3.3067e-11,
-4600000,3.3014e-11,
-4700000,3.2272e-11,
-4800000,3.1877e-11,
-4900000,3.0643e-11,
-5000000,2.9846e-11,
-4950000,3.0798e-11,
-4850000,3.1195e-11,
-4750000,3.1872e-11,
-4650000,3.2126e-11,
-4550000,3.3144e-11,
-4450000,3.3331e-11,
-4350000,3.3705e-11,
-4250000,3.4962e-11,
-4150000,3.5651e-11,
-4050000,3.6451e-11,
-3950000,3.6937e-11,
-3850000,3.7275e-11,
-3750000,3.8067e-11,
-3650000,3.9248e-11,
-3550000,3.9913e-11,
-3450000,4.0187e-11,
-3350000,4.0576e-11,
-3250000,4.1766e-11,
-3150000,4.3046e-11,
-3050000,4.258e-11,
-2950000,4.3538e-11,
-2850000,4.4498e-11,
-2750000,4.5263e-11,
-2650000,4.5446e-11,
-2550000,4.5393e-11,
-2450000,4.5723e-11,
-2350000,4.4599e-11,
-2250000,4.6729e-11,
-2150000,4.6663e-11,
-2050000,4.7829e-11,
-1950000,4.7698e-11,
-1850000,4.7777e-11,
-1750000,4.7567e-11,
-1650000,4.7994e-11,
-1550000,4.7943e-11,
-1450000,4.8174e-11,
-1350000,4.8151e-11,
-1250000,4.8221e-11,
-1150000,4.7428e-11,
-1050000,4.8195e-11,
-950000,4.7651e-11,
-850000,4.7158e-11,
-750000,4.7016e-11,
-650000,4.7475e-11,
-550000,4.5996e-11,
-450000,4.6032e-11,
-350000,4.5477e-11,
-250000,4.5541e-11,
-150000,4.5675e-11,
-50000,4.5315e-11,
50000,4.5047e-11,
150000,4.4994e-11,
