General parameters:
Start time: 2023              8             21             23             40      14.035009
Finish time: 2023              8             21             23             46      10.156495
Dwell time (ms): 3000.000000
Source chamber pressure: 2.00e+3
Differential chamber pressure: 7.98e-07
Sample chamber pressure: 3.79e-08
Example position (nm): -2897358.003032,202426.001263,-1000000.000000
Rotation angle (udeg): 130000070.000000
==========
Instrument status: 
0:Data Directory:/icon/data/2023_08_MoS2_5um_hbn_sub/
1:Sample:MoS2
2:Comments:no
3:PinholePlate:#C13
4:z_Zero:4200
5:Operator:djw77/nav31/kw570
==========
zscan inputs: 
z_sep:50000
z_range:200000 -5000000
data_path:/icon/data/2023_08_MoS2_5um_hbn_sub/
example_pos:-2897358.003      202426.00126          -1000000
N_dwell:200
sampling_period:15
make_plots:0
m1:0.98976
m2:-0.0073571
==========
Detector params:
Sampling period (ms): 15.000000
N dwell: 200.000000
Filament current (A): 1.540000
Filament emission (mA): 1.744884
Solenoid current (A): NaN
Solenoid shim current (A): NaN
Lens params:
0  685
1  300
2  125
3      -0.002
4       -0.01
5       0.012
6         0.8
7         2.1
8         2.8
9  3000
10  1450
11         0.85
12   0
==========
Data:
z(nm),I(A)
200000,4.5158e-11,
100000,4.5206e-11,
0,4.5203e-11,
-100000,4.6014e-11,
-200000,4.625e-11,
-300000,4.7268e-11,
-400000,4.5556e-11,
-500000,4.6301e-11,
-600000,4.695e-11,
-700000,4.6226e-11,
-800000,4.6085e-11,
-900000,4.6194e-11,
-1000000,4.6717e-11,
-1100000,4.6956e-11,
-1200000,4.7479e-11,
-1300000,4.7367e-11,
-1400000,4.7382e-11,
-1500000,4.8983e-11,
-1600000,4.8278e-11,
-1700000,4.687e-11,
-1800000,4.6471e-11,
-1900000,4.7298e-11,
-2000000,4.7492e-11,
-2100000,4.6628e-11,
-2200000,4.571e-11,
-2300000,4.6061e-11,
-2400000,4.5571e-11,
-2500000,4.5589e-11,
-2600000,4.5172e-11,
-2700000,4.4247e-11,
-2800000,4.4193e-11,
-2900000,4.3565e-11,
-3000000,4.2166e-11,
-3100000,4.2014e-11,
-3200000,4.1119e-11,
-3300000,4e-11,
-3400000,3.8671e-11,
-3500000,3.9429e-11,
-3600000,3.825e-11,
-3700000,3.8038e-11,
-3800000,3.6493e-11,
-3900000,3.6118e-11,
-4000000,3.5555e-11,
-4100000,3.4456e-11,
-4200000,3.4059e-11,
-4300000,3.4122e-11,
-4400000,3.3624e-11,
-4500000,3.1807e-11,
-4600000,3.1927e-11,
-4700000,3.0723e-11,
-4800000,3.0572e-11,
-4900000,3.0189e-11,
-5000000,3.0464e-11,
-4950000,2.9065e-11,
-4850000,3.0028e-11,
-4750000,3.1007e-11,
-4650000,3.1399e-11,
-4550000,3.1677e-11,
-4450000,3.2552e-11,
-4350000,3.3455e-11,
-4250000,3.4226e-11,
-4150000,3.5072e-11,
-4050000,3.4936e-11,
-3950000,3.585e-11,
-3850000,3.6892e-11,
-3750000,3.7928e-11,
-3650000,3.8156e-11,
-3550000,3.8902e-11,
-3450000,3.8539e-11,
-3350000,3.9565e-11,
-3250000,3.9282e-11,
-3150000,4.092e-11,
-3050000,4.0701e-11,
-2950000,4.1663e-11,
-2850000,4.3293e-11,
-2750000,4.3944e-11,
-2650000,4.3376e-11,
-2550000,4.4676e-11,
-2450000,4.4444e-11,
-2350000,4.5676e-11,
-2250000,4.6148e-11,
-2150000,4.6661e-11,
-2050000,4.6384e-11,
-1950000,4.7736e-11,
-1850000,4.774e-11,
-1750000,4.7802e-11,
-1650000,4.769e-11,
-1550000,4.613e-11,
-1450000,4.7393e-11,
-1350000,4.6548e-11,
-1250000,4.6248e-11,
-1150000,4.5792e-11,
-1050000,4.6081e-11,
-950000,4.5896e-11,
-850000,4.7269e-11,
-750000,4.5784e-11,
-650000,4.5885e-11,
-550000,4.597e-11,
-450000,4.5822e-11,
-350000,4.6135e-11,
-250000,4.6431e-11,
-150000,4.5324e-11,
-50000,4.5262e-11,
50000,4.4907e-11,
150000,4.4324e-11,
