General parameters:
Start time: 2023              8             22             13              6      36.207084
Finish time: 2023              8             22             13             12      31.084933
Dwell time (ms): 3000.000000
Source chamber pressure: 2.00e+3
Differential chamber pressure: 7.98e-07
Sample chamber pressure: 3.84e-08
Example position (nm): -3282155.848949,264165.856139,-1000000.000000
Rotation angle (udeg): 100000065.000000
==========
Instrument status: 
0:Data Directory:/icon/data/2023_08_MoS2_5um_hbn_sub/
1:Sample:MoS2
2:Comments:no
3:PinholePlate:#C13
4:z_Zero:4200
5:Operator:djw77/nav31/kw570
==========
zscan inputs: 
z_sep:50000
z_range:200000 -5000000
data_path:/icon/data/2023_08_MoS2_5um_hbn_sub/
example_pos:-3282155.8489      264165.85614          -1000000
N_dwell:200
sampling_period:15
make_plots:0
m1:0.98976
m2:-0.0073571
==========
Detector params:
Sampling period (ms): 15.000000
N dwell: 200.000000
Filament current (A): 1.540000
Filament emission (mA): 1.737702
Solenoid current (A): NaN
Solenoid shim current (A): NaN
Lens params:
0  685
1  300
2  125
3      -0.002
4       -0.01
5       0.012
6         0.8
7         2.1
8         2.8
9  3000
10  1450
11         0.85
12   0
==========
Data:
z(nm),I(A)
200000,4.4134e-11,
100000,4.4646e-11,
0,4.4905e-11,
-100000,4.4998e-11,
-200000,4.3986e-11,
-300000,4.4909e-11,
-400000,4.5502e-11,
-500000,4.6293e-11,
-600000,4.4801e-11,
-700000,4.6849e-11,
-800000,4.7065e-11,
-900000,4.6774e-11,
-1000000,4.7358e-11,
-1100000,4.7747e-11,
-1200000,4.7936e-11,
-1300000,4.7885e-11,
-1400000,4.7974e-11,
-1500000,4.8523e-11,
-1600000,4.9049e-11,
-1700000,4.824e-11,
-1800000,4.8757e-11,
-1900000,4.7742e-11,
-2000000,4.7285e-11,
-2100000,4.5935e-11,
-2200000,4.7625e-11,
-2300000,4.7328e-11,
-2400000,4.7593e-11,
-2500000,4.605e-11,
-2600000,4.5788e-11,
-2700000,4.644e-11,
-2800000,4.4754e-11,
-2900000,4.4912e-11,
-3000000,4.4181e-11,
-3100000,4.3e-11,
-3200000,4.1905e-11,
-3300000,4.1948e-11,
-3400000,4.0286e-11,
-3500000,4.0414e-11,
-3600000,3.9705e-11,
-3700000,3.8528e-11,
-3800000,3.7786e-11,
-3900000,3.7408e-11,
-4000000,3.6465e-11,
-4100000,3.5745e-11,
-4200000,3.5919e-11,
-4300000,3.507e-11,
-4400000,3.4258e-11,
-4500000,3.3641e-11,
-4600000,3.3276e-11,
-4700000,3.3016e-11,
-4800000,3.1914e-11,
-4900000,3.0543e-11,
-5000000,3.0122e-11,
-4950000,3.1017e-11,
-4850000,3.149e-11,
-4750000,3.234e-11,
-4650000,3.2761e-11,
-4550000,3.2901e-11,
-4450000,3.4027e-11,
-4350000,3.4227e-11,
-4250000,3.468e-11,
-4150000,3.5584e-11,
-4050000,3.6817e-11,
-3950000,3.7733e-11,
-3850000,3.7941e-11,
-3750000,3.8365e-11,
-3650000,3.8857e-11,
-3550000,3.9805e-11,
-3450000,4.1079e-11,
-3350000,4.1062e-11,
-3250000,4.0364e-11,
-3150000,4.1707e-11,
-3050000,4.3007e-11,
-2950000,4.3655e-11,
-2850000,4.4673e-11,
-2750000,4.5415e-11,
-2650000,4.5049e-11,
-2550000,4.5192e-11,
-2450000,4.6247e-11,
-2350000,4.6281e-11,
-2250000,4.623e-11,
-2150000,4.7564e-11,
-2050000,4.8467e-11,
-1950000,4.7988e-11,
-1850000,4.7766e-11,
-1750000,4.9395e-11,
-1650000,4.8731e-11,
-1550000,4.8845e-11,
-1450000,4.93e-11,
-1350000,4.7403e-11,
-1250000,4.879e-11,
-1150000,4.7463e-11,
-1050000,4.8181e-11,
-950000,4.7846e-11,
-850000,4.7402e-11,
-750000,4.7751e-11,
-650000,4.648e-11,
-550000,4.5647e-11,
-450000,4.5287e-11,
-350000,4.5607e-11,
-250000,4.4297e-11,
-150000,4.5176e-11,
-50000,4.4495e-11,
50000,4.4387e-11,
150000,4.3916e-11,
