General parameters:
Start time: 2023              8             22              2             58       17.58268
Finish time: 2023              8             22              3              4      14.065617
Dwell time (ms): 3000.000000
Source chamber pressure: 2.00e+3
Differential chamber pressure: 7.98e-07
Sample chamber pressure: 3.79e-08
Example position (nm): -3100590.424218,291877.497805,-1000000.000000
Rotation angle (udeg): 115000055.000000
==========
Instrument status: 
0:Data Directory:/icon/data/2023_08_MoS2_5um_hbn_sub/
1:Sample:MoS2
2:Comments:no
3:PinholePlate:#C13
4:z_Zero:4200
5:Operator:djw77/nav31/kw570
==========
zscan inputs: 
z_sep:50000
z_range:200000 -5000000
data_path:/icon/data/2023_08_MoS2_5um_hbn_sub/
example_pos:-3100590.4242       291877.4978          -1000000
N_dwell:200
sampling_period:15
make_plots:0
m1:0.98976
m2:-0.0073571
==========
Detector params:
Sampling period (ms): 15.000000
N dwell: 200.000000
Filament current (A): 1.540000
Filament emission (mA): 1.752750
Solenoid current (A): NaN
Solenoid shim current (A): NaN
Lens params:
0  685
1  300
2  125
3      -0.002
4       -0.01
5       0.012
6         0.8
7         2.1
8         2.8
9  3000
10  1450
11         0.85
12   0
==========
Data:
z(nm),I(A)
200000,4.2394e-11,
100000,4.2242e-11,
0,4.3169e-11,
-100000,4.3069e-11,
-200000,4.3607e-11,
-300000,4.3512e-11,
-400000,4.409e-11,
-500000,4.2699e-11,
-600000,4.3974e-11,
-700000,4.4259e-11,
-800000,4.4061e-11,
-900000,4.494e-11,
-1000000,4.4838e-11,
-1100000,4.4854e-11,
-1200000,4.4564e-11,
-1300000,4.5928e-11,
-1400000,4.5899e-11,
-1500000,4.5481e-11,
-1600000,4.5799e-11,
-1700000,4.5635e-11,
-1800000,4.5526e-11,
-1900000,4.4887e-11,
-2000000,4.6369e-11,
-2100000,4.5242e-11,
-2200000,4.5157e-11,
-2300000,4.4106e-11,
-2400000,4.3604e-11,
-2500000,4.3636e-11,
-2600000,4.2938e-11,
-2700000,4.3168e-11,
-2800000,4.1649e-11,
-2900000,4.0369e-11,
-3000000,4.1234e-11,
-3100000,4.0111e-11,
-3200000,3.9361e-11,
-3300000,3.9808e-11,
-3400000,3.9333e-11,
-3500000,3.6728e-11,
-3600000,3.6786e-11,
-3700000,3.5999e-11,
-3800000,3.6642e-11,
-3900000,3.5174e-11,
-4000000,3.3735e-11,
-4100000,3.3216e-11,
-4200000,3.2864e-11,
-4300000,3.2418e-11,
-4400000,3.1796e-11,
-4500000,3.1355e-11,
-4600000,3.0474e-11,
-4700000,3.0269e-11,
-4800000,2.9506e-11,
-4900000,2.9106e-11,
-5000000,2.8028e-11,
-4950000,2.8778e-11,
-4850000,2.9677e-11,
-4750000,2.9565e-11,
-4650000,3.0795e-11,
-4550000,3.0572e-11,
-4450000,3.1819e-11,
-4350000,3.2014e-11,
-4250000,3.2262e-11,
-4150000,3.3075e-11,
-4050000,3.4529e-11,
-3950000,3.4755e-11,
-3850000,3.4144e-11,
-3750000,3.5693e-11,
-3650000,3.6376e-11,
-3550000,3.8066e-11,
-3450000,3.8045e-11,
-3350000,3.875e-11,
-3250000,3.9906e-11,
-3150000,3.942e-11,
-3050000,4.0285e-11,
-2950000,4.1348e-11,
-2850000,4.2288e-11,
-2750000,4.2519e-11,
-2650000,4.2285e-11,
-2550000,4.3778e-11,
-2450000,4.345e-11,
-2350000,4.4673e-11,
-2250000,4.4945e-11,
-2150000,4.4752e-11,
-2050000,4.4358e-11,
-1950000,4.5359e-11,
-1850000,4.49e-11,
-1750000,4.5806e-11,
-1650000,4.6261e-11,
-1550000,4.6048e-11,
-1450000,4.6121e-11,
-1350000,4.5634e-11,
-1250000,4.4374e-11,
-1150000,4.4766e-11,
-1050000,4.4617e-11,
-950000,4.5024e-11,
-850000,4.4117e-11,
-750000,4.4736e-11,
-650000,4.3461e-11,
-550000,4.3145e-11,
-450000,4.357e-11,
-350000,4.317e-11,
-250000,4.3509e-11,
-150000,4.3713e-11,
-50000,4.2621e-11,
50000,4.2638e-11,
150000,4.2325e-11,
