General parameters:
Start time: 2023              8             21             16             12      46.066633
Finish time: 2023              8             21             16             18       41.27446
Dwell time (ms): 3000.000000
Source chamber pressure: 2.00e+3
Differential chamber pressure: 7.98e-07
Sample chamber pressure: 3.79e-08
Example position (nm): -3175574.818139,295683.053849,-1000000.000000
Rotation angle (udeg): 109999825.000000
==========
Instrument status: 
0:Data Directory:/icon/data/2023_08_MoS2_5um_hbn_sub/
1:Sample:MoS2
2:Comments:no
3:PinholePlate:#C13
4:z_Zero:4200
5:Operator:djw77/nav31/kw570
==========
zscan inputs: 
z_sep:50000
z_range:200000 -5000000
data_path:/icon/data/2023_08_MoS2_5um_hbn_sub/
example_pos:-3175574.8181      295683.05385          -1000000
N_dwell:200
sampling_period:15
make_plots:0
m1:0.98976
m2:-0.0073571
==========
Detector params:
Sampling period (ms): 15.000000
N dwell: 200.000000
Filament current (A): 1.540000
Filament emission (mA): 1.740096
Solenoid current (A): NaN
Solenoid shim current (A): NaN
Lens params:
0  685
1  300
2  125
3      -0.002
4       -0.01
5       0.012
6         0.8
7         2.1
8         2.8
9  3000
10  1450
11         0.85
12   0
==========
Data:
z(nm),I(A)
200000,4.5013e-11,
100000,4.5541e-11,
0,4.4593e-11,
-100000,4.5593e-11,
-200000,4.5505e-11,
-300000,4.554e-11,
-400000,4.4904e-11,
-500000,4.6841e-11,
-600000,4.6617e-11,
-700000,4.7415e-11,
-800000,4.7005e-11,
-900000,4.6055e-11,
-1000000,4.7239e-11,
-1100000,4.6887e-11,
-1200000,4.7253e-11,
-1300000,4.803e-11,
-1400000,4.7564e-11,
-1500000,4.7543e-11,
-1600000,4.7982e-11,
-1700000,4.8637e-11,
-1800000,4.8852e-11,
-1900000,4.7644e-11,
-2000000,4.7759e-11,
-2100000,4.7217e-11,
-2200000,4.6917e-11,
-2300000,4.6908e-11,
-2400000,4.6792e-11,
-2500000,4.5319e-11,
-2600000,4.6028e-11,
-2700000,4.5816e-11,
-2800000,4.5033e-11,
-2900000,4.4471e-11,
-3000000,4.4104e-11,
-3100000,4.2751e-11,
-3200000,4.0718e-11,
-3300000,4.2041e-11,
-3400000,4.0803e-11,
-3500000,3.9425e-11,
-3600000,3.922e-11,
-3700000,3.9145e-11,
-3800000,3.7651e-11,
-3900000,3.7711e-11,
-4000000,3.5714e-11,
-4100000,3.6702e-11,
-4200000,3.5133e-11,
-4300000,3.5268e-11,
-4400000,3.3361e-11,
-4500000,3.2938e-11,
-4600000,3.2952e-11,
-4700000,3.2581e-11,
-4800000,3.2133e-11,
-4900000,3.105e-11,
-5000000,3.0066e-11,
-4950000,3.0317e-11,
-4850000,3.1652e-11,
-4750000,3.2039e-11,
-4650000,3.2269e-11,
-4550000,3.3036e-11,
-4450000,3.385e-11,
-4350000,3.4077e-11,
-4250000,3.4645e-11,
-4150000,3.5349e-11,
-4050000,3.5667e-11,
-3950000,3.6202e-11,
-3850000,3.7652e-11,
-3750000,3.8954e-11,
-3650000,3.8315e-11,
-3550000,3.8869e-11,
-3450000,4.0689e-11,
-3350000,4.0765e-11,
-3250000,4.092e-11,
-3150000,4.2808e-11,
-3050000,4.3569e-11,
-2950000,4.331e-11,
-2850000,4.3626e-11,
-2750000,4.5203e-11,
-2650000,4.5249e-11,
-2550000,4.5591e-11,
-2450000,4.6128e-11,
-2350000,4.735e-11,
-2250000,4.678e-11,
-2150000,4.6961e-11,
-2050000,4.7613e-11,
-1950000,4.792e-11,
-1850000,4.9223e-11,
-1750000,4.882e-11,
-1650000,4.8881e-11,
-1550000,4.8563e-11,
-1450000,4.7715e-11,
-1350000,4.8292e-11,
-1250000,4.7694e-11,
-1150000,4.762e-11,
-1050000,4.7901e-11,
-950000,4.807e-11,
-850000,4.7682e-11,
-750000,4.6405e-11,
-650000,4.7005e-11,
-550000,4.6212e-11,
-450000,4.5963e-11,
-350000,4.5684e-11,
-250000,4.5738e-11,
-150000,4.6227e-11,
-50000,4.6029e-11,
50000,4.5639e-11,
150000,4.4523e-11,
