General parameters:
Start time: 2023              8             15             10             35      37.495169
Finish time: 2023              8             15             10             50      50.302428
Dwell time (ms): 3750.000000
Source chamber pressure: 2.00e+3
Differential chamber pressure: 7.97e-07
Sample chamber pressure: 4.11e-08
Example position (nm): -3485000.000000,288000.000000,-1000000.000000
Rotation angle (udeg): 90000120.000000
==========
Instrument status: 
0:Data Directory:/icon/data/2023_08_MoS2_5um_hbn_sub/
1:Sample:MoS2
2:Comments:no
3:PinholePlate:#C13
4:z_Zero:4200
5:Operator:djw77/nav31/kw570
==========
zscan inputs: 
z_sep:30000
z_range:500000 -6000000
data_path:/icon/data/2023_08_MoS2_5um_hbn_sub/
example_pos:-3485000   288000 -1000000
N_dwell:250
sampling_period:15
make_plots:1
m1:0.98534
m2:-0.0012405
==========
Detector params:
Sampling period (ms): 15.000000
N dwell: 250.000000
Filament current (A): 1.540000
Filament emission (mA): 1.626894
Solenoid current (A): NaN
Solenoid shim current (A): NaN
Lens params:
0  685
1  300
2  125
3      -0.002
4       -0.01
5       0.012
6         0.8
7         2.1
8         2.8
9  3000
10  1450
11         0.85
12   0
==========
Data:
z(nm),I(A)
500000,9.5564e-11,
440000,9.63e-11,
380000,9.8086e-11,
320000,1.0117e-10,
260000,1.0395e-10,
200000,1.0483e-10,
140000,1.0608e-10,
80000,1.0576e-10,
20000,1.0628e-10,
-40000,1.0589e-10,
-100000,1.0701e-10,
-160000,1.0819e-10,
-220000,1.0634e-10,
-280000,1.0795e-10,
-340000,1.0858e-10,
-400000,1.0966e-10,
-460000,1.1085e-10,
-520000,1.1311e-10,
-580000,1.1522e-10,
-640000,1.1597e-10,
-700000,1.1677e-10,
-760000,1.1499e-10,
-820000,1.1467e-10,
-880000,1.1474e-10,
-940000,1.1397e-10,
-1000000,1.163e-10,
-1060000,1.1703e-10,
-1120000,1.1735e-10,
-1180000,1.1573e-10,
-1240000,1.1816e-10,
-1300000,1.1827e-10,
-1360000,1.1668e-10,
-1420000,1.1742e-10,
-1480000,1.1526e-10,
-1540000,1.1653e-10,
-1600000,1.1366e-10,
-1660000,1.1294e-10,
-1720000,1.1156e-10,
-1780000,1.1094e-10,
-1840000,1.0928e-10,
-1900000,1.0852e-10,
-1960000,1.0789e-10,
-2020000,1.0682e-10,
-2080000,1.0661e-10,
-2140000,1.057e-10,
-2200000,1.0521e-10,
-2260000,1.0398e-10,
-2320000,1.0418e-10,
-2380000,1.0327e-10,
-2440000,1.0365e-10,
-2500000,1.0389e-10,
-2560000,1.0278e-10,
-2620000,1.0061e-10,
-2680000,1.004e-10,
-2740000,9.7873e-11,
-2800000,9.7884e-11,
-2860000,9.7098e-11,
-2920000,9.506e-11,
-2980000,9.5504e-11,
-3040000,9.5063e-11,
-3100000,9.3865e-11,
-3160000,9.099e-11,
-3220000,9.1488e-11,
-3280000,9.0847e-11,
-3340000,8.8964e-11,
-3400000,8.7649e-11,
-3460000,8.8844e-11,
-3520000,8.5993e-11,
-3580000,8.548e-11,
-3640000,8.5155e-11,
-3700000,8.4171e-11,
-3760000,8.2881e-11,
-3820000,8.2143e-11,
-3880000,8.2483e-11,
-3940000,8.0954e-11,
-4000000,7.9782e-11,
-4060000,7.9622e-11,
-4120000,7.679e-11,
-4180000,7.8889e-11,
-4240000,7.6602e-11,
-4300000,7.5634e-11,
-4360000,7.5897e-11,
-4420000,7.5365e-11,
-4480000,7.5081e-11,
-4540000,7.3766e-11,
-4600000,7.4204e-11,
-4660000,7.2614e-11,
-4720000,7.2727e-11,
-4780000,7.3189e-11,
-4840000,7.1059e-11,
-4900000,7.0636e-11,
-4960000,6.9206e-11,
-5020000,6.9482e-11,
-5080000,6.9374e-11,
-5140000,6.8228e-11,
-5200000,6.8152e-11,
-5260000,6.707e-11,
-5320000,6.5718e-11,
-5380000,6.7248e-11,
-5440000,6.6534e-11,
-5500000,6.5847e-11,
-5560000,6.4845e-11,
-5620000,6.4908e-11,
-5680000,6.4857e-11,
-5740000,6.3372e-11,
-5800000,6.4024e-11,
-5860000,6.3517e-11,
-5920000,6.3512e-11,
-5980000,6.243e-11,
-5950000,6.3021e-11,
-5890000,6.3312e-11,
-5830000,6.314e-11,
-5770000,6.3503e-11,
-5710000,6.3954e-11,
-5650000,6.431e-11,
-5590000,6.5954e-11,
-5530000,6.5226e-11,
-5470000,6.6064e-11,
-5410000,6.5786e-11,
-5350000,6.5743e-11,
-5290000,6.706e-11,
-5230000,6.8126e-11,
-5170000,6.8266e-11,
-5110000,6.8389e-11,
-5050000,6.9616e-11,
-4990000,6.9532e-11,
-4930000,6.9548e-11,
-4870000,7.1011e-11,
-4810000,7.1368e-11,
-4750000,7.1325e-11,
-4690000,7.3073e-11,
-4630000,7.3562e-11,
-4570000,7.353e-11,
-4510000,7.3958e-11,
-4450000,7.5204e-11,
-4390000,7.5858e-11,
-4330000,7.6854e-11,
-4270000,7.6463e-11,
-4210000,7.8633e-11,
-4150000,7.8454e-11,
-4090000,7.8874e-11,
-4030000,8.0454e-11,
-3970000,8.098e-11,
-3910000,8.1341e-11,
-3850000,8.0754e-11,
-3790000,8.2544e-11,
-3730000,8.4164e-11,
-3670000,8.4235e-11,
-3610000,8.4759e-11,
-3550000,8.4546e-11,
-3490000,8.6962e-11,
-3430000,8.7883e-11,
-3370000,8.7719e-11,
-3310000,8.9428e-11,
-3250000,9.027e-11,
-3190000,9.1431e-11,
-3130000,9.1609e-11,
-3070000,9.3539e-11,
-3010000,9.2238e-11,
-2950000,9.6485e-11,
-2890000,9.691e-11,
-2830000,9.763e-11,
-2770000,9.7722e-11,
-2710000,9.8391e-11,
-2650000,9.9915e-11,
-2590000,1.0115e-10,
-2530000,1.0056e-10,
-2470000,1.0237e-10,
-2410000,1.0216e-10,
-2350000,1.0432e-10,
-2290000,1.0486e-10,
-2230000,1.0508e-10,
-2170000,1.0726e-10,
-2110000,1.0637e-10,
-2050000,1.0653e-10,
-1990000,1.0749e-10,
-1930000,1.0835e-10,
-1870000,1.0783e-10,
-1810000,1.0944e-10,
-1750000,1.1217e-10,
-1690000,1.1236e-10,
-1630000,1.1407e-10,
-1570000,1.1701e-10,
-1510000,1.1661e-10,
-1450000,1.1679e-10,
-1390000,1.1541e-10,
-1330000,1.1852e-10,
-1270000,1.1804e-10,
-1210000,1.1792e-10,
-1150000,1.1507e-10,
-1090000,1.1694e-10,
-1030000,1.1687e-10,
-970000,1.1495e-10,
-910000,1.1385e-10,
-850000,1.1475e-10,
-790000,1.149e-10,
-730000,1.1462e-10,
-670000,1.1589e-10,
-610000,1.1494e-10,
-550000,1.1286e-10,
-490000,1.116e-10,
-430000,1.0846e-10,
-370000,1.0931e-10,
-310000,1.0704e-10,
-250000,1.0744e-10,
-190000,1.078e-10,
-130000,1.0534e-10,
-70000,1.0621e-10,
-10000,1.0525e-10,
50000,1.0503e-10,
110000,1.0597e-10,
170000,1.0534e-10,
230000,1.0396e-10,
290000,1.0098e-10,
350000,9.8763e-11,
410000,9.6696e-11,
470000,9.6136e-11,
