General parameters:
Start time: 2023              8             22             13             36      35.776954
Finish time: 2023              8             22             13             42      31.755377
Dwell time (ms): 3000.000000
Source chamber pressure: 2.00e+3
Differential chamber pressure: 7.98e-07
Sample chamber pressure: 3.79e-08
Example position (nm): -3112754.349752,233228.191278,-1000000.000000
Rotation angle (udeg): 112500215.000000
==========
Instrument status: 
0:Data Directory:/icon/data/2023_08_MoS2_5um_hbn_sub/
1:Sample:MoS2
2:Comments:no
3:PinholePlate:#C13
4:z_Zero:4200
5:Operator:djw77/nav31/kw570
==========
zscan inputs: 
z_sep:50000
z_range:200000 -5000000
data_path:/icon/data/2023_08_MoS2_5um_hbn_sub/
example_pos:-3112754.3498      233228.19128          -1000000
N_dwell:200
sampling_period:15
make_plots:0
m1:0.98976
m2:-0.0073571
==========
Detector params:
Sampling period (ms): 15.000000
N dwell: 200.000000
Filament current (A): 1.540000
Filament emission (mA): 1.736676
Solenoid current (A): NaN
Solenoid shim current (A): NaN
Lens params:
0  685
1  300
2  125
3      -0.002
4       -0.01
5       0.012
6         0.8
7         2.1
8         2.8
9  3000
10  1450
11         0.85
12   0
==========
Data:
z(nm),I(A)
200000,4.4521e-11,
100000,4.4445e-11,
0,4.6152e-11,
-100000,4.6863e-11,
-200000,4.6269e-11,
-300000,4.7131e-11,
-400000,4.6068e-11,
-500000,4.5802e-11,
-600000,4.7293e-11,
-700000,4.7851e-11,
-800000,4.7626e-11,
-900000,4.826e-11,
-1000000,4.7271e-11,
-1100000,4.9245e-11,
-1200000,4.8081e-11,
-1300000,4.8572e-11,
-1400000,4.8347e-11,
-1500000,4.8699e-11,
-1600000,4.8646e-11,
-1700000,4.7683e-11,
-1800000,4.8522e-11,
-1900000,4.7507e-11,
-2000000,4.8334e-11,
-2100000,4.7595e-11,
-2200000,4.7362e-11,
-2300000,4.8267e-11,
-2400000,4.6727e-11,
-2500000,4.6573e-11,
-2600000,4.6432e-11,
-2700000,4.3421e-11,
-2800000,4.5498e-11,
-2900000,4.327e-11,
-3000000,4.3501e-11,
-3100000,4.2628e-11,
-3200000,4.186e-11,
-3300000,4.1127e-11,
-3400000,4.0214e-11,
-3500000,4.0497e-11,
-3600000,3.9686e-11,
-3700000,3.9542e-11,
-3800000,3.8485e-11,
-3900000,3.7053e-11,
-4000000,3.7419e-11,
-4100000,3.6492e-11,
-4200000,3.5287e-11,
-4300000,3.523e-11,
-4400000,3.3895e-11,
-4500000,3.3605e-11,
-4600000,3.3781e-11,
-4700000,3.2677e-11,
-4800000,3.0991e-11,
-4900000,3.1086e-11,
-5000000,3.0479e-11,
-4950000,3.12e-11,
-4850000,3.1024e-11,
-4750000,3.2026e-11,
-4650000,3.263e-11,
-4550000,3.2791e-11,
-4450000,3.3595e-11,
-4350000,3.5294e-11,
-4250000,3.5127e-11,
-4150000,3.5961e-11,
-4050000,3.7048e-11,
-3950000,3.7212e-11,
-3850000,3.7553e-11,
-3750000,3.8319e-11,
-3650000,3.9336e-11,
-3550000,3.9918e-11,
-3450000,4.0245e-11,
-3350000,4.0265e-11,
-3250000,4.1855e-11,
-3150000,4.3693e-11,
-3050000,4.3356e-11,
-2950000,4.443e-11,
-2850000,4.4057e-11,
-2750000,4.5053e-11,
-2650000,4.5452e-11,
-2550000,4.5036e-11,
-2450000,4.6997e-11,
-2350000,4.671e-11,
-2250000,4.8078e-11,
-2150000,4.7256e-11,
-2050000,4.8511e-11,
-1950000,4.7517e-11,
-1850000,4.9003e-11,
-1750000,4.815e-11,
-1650000,4.7755e-11,
-1550000,4.8627e-11,
-1450000,4.9232e-11,
-1350000,4.8187e-11,
-1250000,4.8617e-11,
-1150000,4.7873e-11,
-1050000,4.7947e-11,
-950000,4.7606e-11,
-850000,4.7301e-11,
-750000,4.7149e-11,
-650000,4.7148e-11,
-550000,4.6578e-11,
-450000,4.5918e-11,
-350000,4.5877e-11,
-250000,4.6237e-11,
-150000,4.6063e-11,
-50000,4.6615e-11,
50000,4.5536e-11,
150000,4.5988e-11,
