General parameters:
Start time: 2023              8             22             11             30      35.866469
Finish time: 2023              8             22             11             36      30.078971
Dwell time (ms): 3000.000000
Source chamber pressure: 2.00e+3
Differential chamber pressure: 7.96e-07
Sample chamber pressure: 3.84e-08
Example position (nm): -3802457.865328,115952.185157,-1000000.000000
Rotation angle (udeg): 60000360.000000
==========
Instrument status: 
0:Data Directory:/icon/data/2023_08_MoS2_5um_hbn_sub/
1:Sample:MoS2
2:Comments:no
3:PinholePlate:#C13
4:z_Zero:4200
5:Operator:djw77/nav31/kw570
==========
zscan inputs: 
z_sep:50000
z_range:200000 -5000000
data_path:/icon/data/2023_08_MoS2_5um_hbn_sub/
example_pos:-3802457.8653      115952.18516          -1000000
N_dwell:200
sampling_period:15
make_plots:0
m1:0.98976
m2:-0.0073571
==========
Detector params:
Sampling period (ms): 15.000000
N dwell: 200.000000
Filament current (A): 1.540000
Filament emission (mA): 1.746936
Solenoid current (A): NaN
Solenoid shim current (A): NaN
Lens params:
0  685
1  300
2  125
3      -0.002
4       -0.01
5       0.012
6         0.8
7         2.1
8         2.8
9  3000
10  1450
11         0.85
12   0
==========
Data:
z(nm),I(A)
200000,4.1152e-11,
100000,4.0626e-11,
0,4.0211e-11,
-100000,4.0872e-11,
-200000,4.1179e-11,
-300000,4.0172e-11,
-400000,4.1574e-11,
-500000,4.2729e-11,
-600000,4.2687e-11,
-700000,4.2415e-11,
-800000,4.367e-11,
-900000,4.4307e-11,
-1000000,4.412e-11,
-1100000,4.4541e-11,
-1200000,4.5147e-11,
-1300000,4.5181e-11,
-1400000,4.5745e-11,
-1500000,4.5958e-11,
-1600000,4.661e-11,
-1700000,4.6289e-11,
-1800000,4.6962e-11,
-1900000,4.6539e-11,
-2000000,4.6794e-11,
-2100000,4.5594e-11,
-2200000,4.5887e-11,
-2300000,4.5222e-11,
-2400000,4.5732e-11,
-2500000,4.5039e-11,
-2600000,4.4321e-11,
-2700000,4.4193e-11,
-2800000,4.3029e-11,
-2900000,4.3244e-11,
-3000000,4.2858e-11,
-3100000,4.1638e-11,
-3200000,4.0013e-11,
-3300000,4.0125e-11,
-3400000,3.9684e-11,
-3500000,3.8342e-11,
-3600000,3.8312e-11,
-3700000,3.877e-11,
-3800000,3.7463e-11,
-3900000,3.6516e-11,
-4000000,3.606e-11,
-4100000,3.5754e-11,
-4200000,3.5191e-11,
-4300000,3.4043e-11,
-4400000,3.2331e-11,
-4500000,3.3355e-11,
-4600000,3.2322e-11,
-4700000,3.252e-11,
-4800000,3.0905e-11,
-4900000,3.0824e-11,
-5000000,2.9343e-11,
-4950000,3.0218e-11,
-4850000,3.1074e-11,
-4750000,3.123e-11,
-4650000,3.1373e-11,
-4550000,3.2341e-11,
-4450000,3.2711e-11,
-4350000,3.3717e-11,
-4250000,3.3715e-11,
-4150000,3.5402e-11,
-4050000,3.5159e-11,
-3950000,3.731e-11,
-3850000,3.6529e-11,
-3750000,3.7397e-11,
-3650000,3.815e-11,
-3550000,3.8478e-11,
-3450000,3.904e-11,
-3350000,4.0309e-11,
-3250000,4.0945e-11,
-3150000,4.127e-11,
-3050000,4.1783e-11,
-2950000,4.186e-11,
-2850000,4.3411e-11,
-2750000,4.3452e-11,
-2650000,4.4707e-11,
-2550000,4.5448e-11,
-2450000,4.4169e-11,
-2350000,4.5807e-11,
-2250000,4.6323e-11,
-2150000,4.6522e-11,
-2050000,4.6968e-11,
-1950000,4.6552e-11,
-1850000,4.606e-11,
-1750000,4.634e-11,
-1650000,4.7303e-11,
-1550000,4.6559e-11,
-1450000,4.5461e-11,
-1350000,4.6149e-11,
-1250000,4.5077e-11,
-1150000,4.4789e-11,
-1050000,4.5265e-11,
-950000,4.5077e-11,
-850000,4.4535e-11,
-750000,4.4463e-11,
-650000,4.2666e-11,
-550000,4.2583e-11,
-450000,4.1922e-11,
-350000,4.0706e-11,
-250000,4.0974e-11,
-150000,4.1489e-11,
-50000,4.0909e-11,
50000,4.0735e-11,
150000,4.1103e-11,
