General parameters:
Start time: 2023              8             28              4             15      46.166898
Finish time: 2023              8             28              4             21      42.299395
Dwell time (ms): 3000.000000
Source chamber pressure: 2.00e+3
Differential chamber pressure: 6.33e-07
Sample chamber pressure: 3.62e-08
Example position (nm): -3220087.309483,326675.346816,-1000000.000000
Rotation angle (udeg): 105000095.000000
==========
Instrument status: 
0:Data Directory:/icon/data/2023_08_MoS2_5um_hbn_sub/
1:Sample:MoS2
2:Comments:no
3:PinholePlate:#C13
4:z_Zero:4200
5:Operator:djw77/nav31/kw570
==========
zscan inputs: 
z_sep:50000
z_range:200000 -5000000
data_path:/icon/data/2023_08_MoS2_5um_hbn_sub/
example_pos:-3220087.3095      326675.34682          -1000000
N_dwell:200
sampling_period:15
make_plots:1
m1:0.98976
m2:-0.0073571
==========
Detector params:
Sampling period (ms): 15.000000
N dwell: 200.000000
Filament current (A): 1.540000
Filament emission (mA): 1.902204
Solenoid current (A): NaN
Solenoid shim current (A): NaN
Lens params:
0  685
1  300
2  125
3      -0.002
4       -0.01
5       0.012
6         0.8
7         2.1
8         2.8
9  3000
10  1450
11         0.85
12   0
==========
Data:
z(nm),I(A)
200000,4.9907e-11,
100000,5.0397e-11,
0,5.1883e-11,
-100000,5.2152e-11,
-200000,5.3625e-11,
-300000,5.4007e-11,
-400000,5.5843e-11,
-500000,6.2796e-11,
-600000,7.4431e-11,
-700000,9.4732e-11,
-800000,1.291e-10,
-900000,1.5239e-10,
-1000000,1.5324e-10,
-1100000,1.2485e-10,
-1200000,9.6334e-11,
-1300000,7.8809e-11,
-1400000,6.9945e-11,
-1500000,6.8653e-11,
-1600000,7.5441e-11,
-1700000,8.1053e-11,
-1800000,8.2258e-11,
-1900000,7.3852e-11,
-2000000,6.2504e-11,
-2100000,5.5732e-11,
-2200000,5.2664e-11,
-2300000,5.3084e-11,
-2400000,5.503e-11,
-2500000,5.5594e-11,
-2600000,5.5727e-11,
-2700000,5.5589e-11,
-2800000,5.408e-11,
-2900000,5.252e-11,
-3000000,5.2318e-11,
-3100000,5.6327e-11,
-3200000,6.0663e-11,
-3300000,6.5483e-11,
-3400000,7.0627e-11,
-3500000,7.1663e-11,
-3600000,6.9844e-11,
-3700000,6.1888e-11,
-3800000,5.3336e-11,
-3900000,4.5885e-11,
-4000000,4.0189e-11,
-4100000,3.762e-11,
-4200000,3.5738e-11,
-4300000,3.4152e-11,
-4400000,3.1957e-11,
-4500000,3.2132e-11,
-4600000,3.2039e-11,
-4700000,3.0655e-11,
-4800000,2.9793e-11,
-4900000,2.9367e-11,
-5000000,2.934e-11,
-4950000,2.834e-11,
-4850000,2.9757e-11,
-4750000,3.0458e-11,
-4650000,3.1278e-11,
-4550000,3.2087e-11,
-4450000,3.2878e-11,
-4350000,3.3023e-11,
-4250000,3.4721e-11,
-4150000,3.7033e-11,
-4050000,3.8729e-11,
-3950000,4.1955e-11,
-3850000,4.8656e-11,
-3750000,5.7968e-11,
-3650000,6.575e-11,
-3550000,7.0522e-11,
-3450000,7.2393e-11,
-3350000,6.8943e-11,
-3250000,6.3672e-11,
-3150000,5.8326e-11,
-3050000,5.3436e-11,
-2950000,5.2687e-11,
-2850000,5.1998e-11,
-2750000,5.3875e-11,
-2650000,5.4544e-11,
-2550000,5.5705e-11,
-2450000,5.5462e-11,
-2350000,5.3694e-11,
-2250000,5.2491e-11,
-2150000,5.301e-11,
-2050000,5.7256e-11,
-1950000,6.6528e-11,
-1850000,7.8048e-11,
-1750000,8.364e-11,
-1650000,8.0901e-11,
-1550000,7.3261e-11,
-1450000,6.9468e-11,
-1350000,7.4571e-11,
-1250000,8.612e-11,
-1150000,1.0851e-10,
-1050000,1.3979e-10,
-950000,1.5724e-10,
-850000,1.4642e-10,
-750000,1.1433e-10,
-650000,8.5403e-11,
-550000,6.8404e-11,
-450000,5.9478e-11,
-350000,5.5607e-11,
-250000,5.397e-11,
-150000,5.2234e-11,
-50000,5.1795e-11,
50000,5.1309e-11,
150000,5.0709e-11,
