General parameters:
Start time: 2023              8             28              5             16        5.23173
Finish time: 2023              8             28              5             22        1.55473
Dwell time (ms): 3000.000000
Source chamber pressure: 2.00e+3
Differential chamber pressure: 6.32e-07
Sample chamber pressure: 3.62e-08
Example position (nm): -2824617.409314,201574.094819,-1000000.000000
Rotation angle (udeg): 130000255.000000
==========
Instrument status: 
0:Data Directory:/icon/data/2023_08_MoS2_5um_hbn_sub/
1:Sample:MoS2
2:Comments:no
3:PinholePlate:#C13
4:z_Zero:4200
5:Operator:djw77/nav31/kw570
==========
zscan inputs: 
z_sep:50000
z_range:200000 -5000000
data_path:/icon/data/2023_08_MoS2_5um_hbn_sub/
example_pos:-2824617.4093      201574.09482          -1000000
N_dwell:200
sampling_period:15
make_plots:1
m1:0.98976
m2:-0.0073571
==========
Detector params:
Sampling period (ms): 15.000000
N dwell: 200.000000
Filament current (A): 1.540000
Filament emission (mA): 1.903914
Solenoid current (A): NaN
Solenoid shim current (A): NaN
Lens params:
0  685
1  300
2  125
3      -0.002
4       -0.01
5       0.012
6         0.8
7         2.1
8         2.8
9  3000
10  1450
11         0.85
12   0
==========
Data:
z(nm),I(A)
200000,7.5683e-11,
100000,7.3506e-11,
0,7.1455e-11,
-100000,7.0103e-11,
-200000,6.469e-11,
-300000,6.4785e-11,
-400000,6.394e-11,
-500000,6.8155e-11,
-600000,7.6963e-11,
-700000,9.3519e-11,
-800000,1.1472e-10,
-900000,1.1361e-10,
-1000000,9.6185e-11,
-1100000,7.8181e-11,
-1200000,7.1005e-11,
-1300000,6.5044e-11,
-1400000,6.3753e-11,
-1500000,6.8093e-11,
-1600000,7.3e-11,
-1700000,8.0223e-11,
-1800000,7.9334e-11,
-1900000,7.2784e-11,
-2000000,6.493e-11,
-2100000,6.0919e-11,
-2200000,5.8362e-11,
-2300000,6.1104e-11,
-2400000,6.5932e-11,
-2500000,7.2208e-11,
-2600000,8.024e-11,
-2700000,8.3411e-11,
-2800000,8.0167e-11,
-2900000,7.3313e-11,
-3000000,6.5761e-11,
-3100000,5.8459e-11,
-3200000,5.5336e-11,
-3300000,5.2219e-11,
-3400000,5.2942e-11,
-3500000,5.2056e-11,
-3600000,5.357e-11,
-3700000,5.176e-11,
-3800000,5.2005e-11,
-3900000,5.0077e-11,
-4000000,4.5915e-11,
-4100000,4.4802e-11,
-4200000,4.1633e-11,
-4300000,3.8371e-11,
-4400000,3.667e-11,
-4500000,3.5476e-11,
-4600000,3.3391e-11,
-4700000,3.2913e-11,
-4800000,3.2306e-11,
-4900000,3.1489e-11,
-5000000,3.1413e-11,
-4950000,3.1558e-11,
-4850000,3.2121e-11,
-4750000,3.2352e-11,
-4650000,3.3841e-11,
-4550000,3.4279e-11,
-4450000,3.626e-11,
-4350000,3.7156e-11,
-4250000,3.985e-11,
-4150000,4.3132e-11,
-4050000,4.4014e-11,
-3950000,4.8562e-11,
-3850000,5.0651e-11,
-3750000,5.1031e-11,
-3650000,5.2999e-11,
-3550000,5.1685e-11,
-3450000,5.0749e-11,
-3350000,5.0772e-11,
-3250000,5.1709e-11,
-3150000,5.5068e-11,
-3050000,6.0207e-11,
-2950000,6.7552e-11,
-2850000,7.476e-11,
-2750000,8.3636e-11,
-2650000,8.3402e-11,
-2550000,7.8357e-11,
-2450000,6.9454e-11,
-2350000,6.4074e-11,
-2250000,6.0348e-11,
-2150000,5.8706e-11,
-2050000,6.194e-11,
-1950000,6.7644e-11,
-1850000,7.6526e-11,
-1750000,8.065e-11,
-1650000,7.9441e-11,
-1550000,7.0673e-11,
-1450000,6.7118e-11,
-1350000,6.4714e-11,
-1250000,6.7761e-11,
-1150000,7.378e-11,
-1050000,8.5016e-11,
-950000,1.0304e-10,
-850000,1.1801e-10,
-750000,1.0519e-10,
-650000,8.4929e-11,
-550000,7.1136e-11,
-450000,6.5336e-11,
-350000,6.3307e-11,
-250000,6.4203e-11,
-150000,6.61e-11,
-50000,6.9745e-11,
50000,7.0794e-11,
150000,7.4958e-11,
