General parameters:
Start time: 2023              8             18             13             54      22.540914
Finish time: 2023              8             18             14              0      20.783728
Dwell time (ms): 3000.000000
Source chamber pressure: 2.00e+3
Differential chamber pressure: 7.89e-07
Sample chamber pressure: 3.88e-08
Example position (nm): -3548568.690450,284222.631052,-1000000.000000
Rotation angle (udeg): 84999790.000000
==========
Instrument status: 
0:Data Directory:/icon/data/2023_08_MoS2_5um_hbn_sub/
1:Sample:MoS2
2:Comments:no
3:PinholePlate:#C13
4:z_Zero:4200
5:Operator:djw77/nav31/kw570
==========
zscan inputs: 
z_sep:50000
z_range:200000 -5000000
data_path:/icon/data/2023_08_MoS2_5um_hbn_sub/
example_pos:-3548568.6904      284222.63105          -1000000
N_dwell:200
sampling_period:15
make_plots:1
m1:0.98976
m2:-0.0073571
==========
Detector params:
Sampling period (ms): 15.000000
N dwell: 200.000000
Filament current (A): 1.540000
Filament emission (mA): 1.669986
Solenoid current (A): NaN
Solenoid shim current (A): NaN
Lens params:
0  685
1  300
2  125
3      -0.002
4       -0.01
5       0.012
6         0.8
7         2.1
8         2.8
9  3000
10  1450
11         0.85
12   0
==========
Data:
z(nm),I(A)
200000,6.3576e-11,
100000,6.3329e-11,
0,5.9573e-11,
-100000,5.4899e-11,
-200000,5.2918e-11,
-300000,5.089e-11,
-400000,4.9732e-11,
-500000,5.1306e-11,
-600000,5.3762e-11,
-700000,6.0079e-11,
-800000,6.7897e-11,
-900000,7.6168e-11,
-1000000,8.5456e-11,
-1100000,8.277e-11,
-1200000,7.1471e-11,
-1300000,6.5124e-11,
-1400000,5.8999e-11,
-1500000,5.4127e-11,
-1600000,5.2193e-11,
-1700000,5.0776e-11,
-1800000,5.03e-11,
-1900000,4.8972e-11,
-2000000,4.8292e-11,
-2100000,4.7149e-11,
-2200000,4.6238e-11,
-2300000,4.7243e-11,
-2400000,4.8886e-11,
-2500000,4.9557e-11,
-2600000,4.7796e-11,
-2700000,4.4891e-11,
-2800000,4.2865e-11,
-2900000,4.169e-11,
-3000000,3.845e-11,
-3100000,3.9052e-11,
-3200000,3.9476e-11,
-3300000,3.9764e-11,
-3400000,4.0189e-11,
-3500000,4.1613e-11,
-3600000,3.926e-11,
-3700000,3.906e-11,
-3800000,3.6741e-11,
-3900000,3.5225e-11,
-4000000,3.1949e-11,
-4100000,2.9904e-11,
-4200000,2.811e-11,
-4300000,2.7955e-11,
-4400000,2.7015e-11,
-4500000,2.6637e-11,
-4600000,2.6219e-11,
-4700000,2.5113e-11,
-4800000,2.512e-11,
-4900000,2.4834e-11,
-5000000,2.4458e-11,
-4950000,2.4803e-11,
-4850000,2.5067e-11,
-4750000,2.5242e-11,
-4650000,2.5357e-11,
-4550000,2.5637e-11,
-4450000,2.7264e-11,
-4350000,2.7862e-11,
-4250000,2.8343e-11,
-4150000,2.8655e-11,
-4050000,3.0342e-11,
-3950000,3.2492e-11,
-3850000,3.4195e-11,
-3750000,3.7347e-11,
-3650000,4.0629e-11,
-3550000,4.0609e-11,
-3450000,4.1707e-11,
-3350000,3.9454e-11,
-3250000,3.9798e-11,
-3150000,3.8684e-11,
-3050000,3.8512e-11,
-2950000,4.0123e-11,
-2850000,4.1721e-11,
-2750000,4.3374e-11,
-2650000,4.7318e-11,
-2550000,4.9037e-11,
-2450000,4.9849e-11,
-2350000,4.8366e-11,
-2250000,4.7576e-11,
-2150000,4.7483e-11,
-2050000,4.754e-11,
-1950000,4.8545e-11,
-1850000,4.9147e-11,
-1750000,4.8989e-11,
-1650000,5.0334e-11,
-1550000,5.1539e-11,
-1450000,5.4244e-11,
-1350000,6.0058e-11,
-1250000,6.7627e-11,
-1150000,7.5571e-11,
-1050000,9.0476e-11,
-950000,8.5445e-11,
-850000,7.6485e-11,
-750000,6.4688e-11,
-650000,5.6807e-11,
-550000,5.1854e-11,
-450000,5.0691e-11,
-350000,5.1488e-11,
-250000,5.3012e-11,
-150000,5.3898e-11,
-50000,5.7718e-11,
50000,6.2519e-11,
150000,6.388e-11,
