General parameters:
Start time: 2023              8             19             16              3       48.14156
Finish time: 2023              8             19             16              9      46.500736
Dwell time (ms): 3000.000000
Source chamber pressure: 2.00e+3
Differential chamber pressure: 7.96e-07
Sample chamber pressure: 3.79e-08
Example position (nm): -3310384.433403,295784.222235,-1000000.000000
Rotation angle (udeg): 100000010.000000
==========
Instrument status: 
0:Data Directory:/icon/data/2023_08_MoS2_5um_hbn_sub/
1:Sample:MoS2
2:Comments:no
3:PinholePlate:#C13
4:z_Zero:4200
5:Operator:djw77/nav31/kw570
==========
zscan inputs: 
z_sep:50000
z_range:200000 -5000000
data_path:/icon/data/2023_08_MoS2_5um_hbn_sub/
example_pos:-3310384.4334      295784.22224          -1000000
N_dwell:200
sampling_period:15
make_plots:0
m1:0.98976
m2:-0.0073571
==========
Detector params:
Sampling period (ms): 15.000000
N dwell: 200.000000
Filament current (A): 1.540000
Filament emission (mA): 1.686060
Solenoid current (A): NaN
Solenoid shim current (A): NaN
Lens params:
0  685
1  300
2  125
3      -0.002
4       -0.01
5       0.012
6         0.8
7         2.1
8         2.8
9  3000
10  1450
11         0.85
12   0
==========
Data:
z(nm),I(A)
200000,4.6548e-11,
100000,4.7583e-11,
0,4.8197e-11,
-100000,4.8772e-11,
-200000,5.0971e-11,
-300000,5.1245e-11,
-400000,5.0902e-11,
-500000,5.4448e-11,
-600000,6.1828e-11,
-700000,7.5901e-11,
-800000,1.0255e-10,
-900000,1.2873e-10,
-1000000,1.2847e-10,
-1100000,1.0102e-10,
-1200000,7.7294e-11,
-1300000,6.4606e-11,
-1400000,5.7141e-11,
-1500000,5.239e-11,
-1600000,5.1849e-11,
-1700000,5.2024e-11,
-1800000,5.2817e-11,
-1900000,5.0402e-11,
-2000000,4.714e-11,
-2100000,4.7473e-11,
-2200000,4.793e-11,
-2300000,5.0707e-11,
-2400000,5.6168e-11,
-2500000,5.8603e-11,
-2600000,5.9723e-11,
-2700000,5.4646e-11,
-2800000,4.9083e-11,
-2900000,4.5824e-11,
-3000000,4.291e-11,
-3100000,4.1531e-11,
-3200000,4.1407e-11,
-3300000,4.1878e-11,
-3400000,4.1545e-11,
-3500000,4.1737e-11,
-3600000,3.9847e-11,
-3700000,3.7483e-11,
-3800000,3.5723e-11,
-3900000,3.4292e-11,
-4000000,3.2086e-11,
-4100000,3.1322e-11,
-4200000,3.1191e-11,
-4300000,3.1109e-11,
-4400000,3.015e-11,
-4500000,2.9985e-11,
-4600000,2.9752e-11,
-4700000,2.8423e-11,
-4800000,2.7744e-11,
-4900000,2.7518e-11,
-5000000,2.6984e-11,
-4950000,2.7321e-11,
-4850000,2.7732e-11,
-4750000,2.8482e-11,
-4650000,2.9635e-11,
-4550000,2.9336e-11,
-4450000,3.041e-11,
-4350000,3.0181e-11,
-4250000,3.0537e-11,
-4150000,3.1563e-11,
-4050000,3.0977e-11,
-3950000,3.2348e-11,
-3850000,3.3794e-11,
-3750000,3.6812e-11,
-3650000,3.8171e-11,
-3550000,4.0594e-11,
-3450000,4.1288e-11,
-3350000,4.1962e-11,
-3250000,4.0937e-11,
-3150000,4.0466e-11,
-3050000,4.1229e-11,
-2950000,4.2755e-11,
-2850000,4.5859e-11,
-2750000,5.0944e-11,
-2650000,5.7072e-11,
-2550000,5.8542e-11,
-2450000,5.8427e-11,
-2350000,5.5547e-11,
-2250000,4.9925e-11,
-2150000,4.7638e-11,
-2050000,4.7219e-11,
-1950000,4.972e-11,
-1850000,5.1031e-11,
-1750000,5.3654e-11,
-1650000,5.1685e-11,
-1550000,5.1761e-11,
-1450000,5.3688e-11,
-1350000,5.9354e-11,
-1250000,6.7419e-11,
-1150000,8.5143e-11,
-1050000,1.1653e-10,
-950000,1.3049e-10,
-850000,1.1928e-10,
-750000,8.9682e-11,
-650000,7.0199e-11,
-550000,5.7054e-11,
-450000,5.275e-11,
-350000,5.0539e-11,
-250000,5.1666e-11,
-150000,4.9876e-11,
-50000,4.9181e-11,
50000,4.9485e-11,
150000,4.8064e-11,
