General parameters:
Start time: 2023              8             22              1             27      47.499279
Finish time: 2023              8             22              1             33      43.931496
Dwell time (ms): 3000.000000
Source chamber pressure: 2.00e+3
Differential chamber pressure: 7.99e-07
Sample chamber pressure: 3.79e-08
Example position (nm): -3646895.857158,268086.411104,-1000000.000000
Rotation angle (udeg): 77500175.000000
==========
Instrument status: 
0:Data Directory:/icon/data/2023_08_MoS2_5um_hbn_sub/
1:Sample:MoS2
2:Comments:no
3:PinholePlate:#C13
4:z_Zero:4200
5:Operator:djw77/nav31/kw570
==========
zscan inputs: 
z_sep:50000
z_range:200000 -5000000
data_path:/icon/data/2023_08_MoS2_5um_hbn_sub/
example_pos:-3646895.8572       268086.4111          -1000000
N_dwell:200
sampling_period:15
make_plots:0
m1:0.98976
m2:-0.0073571
==========
Detector params:
Sampling period (ms): 15.000000
N dwell: 200.000000
Filament current (A): 1.540000
Filament emission (mA): 1.748646
Solenoid current (A): NaN
Solenoid shim current (A): NaN
Lens params:
0  685
1  300
2  125
3      -0.002
4       -0.01
5       0.012
6         0.8
7         2.1
8         2.8
9  3000
10  1450
11         0.85
12   0
==========
Data:
z(nm),I(A)
200000,4.0644e-11,
100000,4.0617e-11,
0,4.0546e-11,
-100000,4.0834e-11,
-200000,4.0239e-11,
-300000,4.0717e-11,
-400000,4.1227e-11,
-500000,4.1785e-11,
-600000,4.2281e-11,
-700000,4.2359e-11,
-800000,4.2606e-11,
-900000,4.2988e-11,
-1000000,4.4085e-11,
-1100000,4.5418e-11,
-1200000,4.4504e-11,
-1300000,4.5452e-11,
-1400000,4.5149e-11,
-1500000,4.5892e-11,
-1600000,4.6205e-11,
-1700000,4.6002e-11,
-1800000,4.5965e-11,
-1900000,4.5018e-11,
-2000000,4.6443e-11,
-2100000,4.5987e-11,
-2200000,4.4773e-11,
-2300000,4.5613e-11,
-2400000,4.4977e-11,
-2500000,4.3157e-11,
-2600000,4.3525e-11,
-2700000,4.2853e-11,
-2800000,4.2461e-11,
-2900000,4.2399e-11,
-3000000,4.1879e-11,
-3100000,4.1379e-11,
-3200000,4.0487e-11,
-3300000,4.0146e-11,
-3400000,3.9026e-11,
-3500000,3.8226e-11,
-3600000,3.8016e-11,
-3700000,3.7026e-11,
-3800000,3.5481e-11,
-3900000,3.5214e-11,
-4000000,3.629e-11,
-4100000,3.4002e-11,
-4200000,3.3659e-11,
-4300000,3.1533e-11,
-4400000,3.2286e-11,
-4500000,3.146e-11,
-4600000,3.0636e-11,
-4700000,3.0748e-11,
-4800000,3.0263e-11,
-4900000,2.9175e-11,
-5000000,2.8589e-11,
-4950000,2.8535e-11,
-4850000,2.9603e-11,
-4750000,3.0558e-11,
-4650000,3.0986e-11,
-4550000,3.1825e-11,
-4450000,3.1625e-11,
-4350000,3.232e-11,
-4250000,3.3909e-11,
-4150000,3.4574e-11,
-4050000,3.5454e-11,
-3950000,3.5349e-11,
-3850000,3.5672e-11,
-3750000,3.7293e-11,
-3650000,3.7077e-11,
-3550000,3.8126e-11,
-3450000,3.8632e-11,
-3350000,4.0007e-11,
-3250000,4.0195e-11,
-3150000,4.037e-11,
-3050000,4.0744e-11,
-2950000,4.0462e-11,
-2850000,4.233e-11,
-2750000,4.297e-11,
-2650000,4.4209e-11,
-2550000,4.451e-11,
-2450000,4.4457e-11,
-2350000,4.4256e-11,
-2250000,4.5217e-11,
-2150000,4.547e-11,
-2050000,4.6351e-11,
-1950000,4.5943e-11,
-1850000,4.58e-11,
-1750000,4.4497e-11,
-1650000,4.7297e-11,
-1550000,4.6188e-11,
-1450000,4.5806e-11,
-1350000,4.4976e-11,
-1250000,4.4973e-11,
-1150000,4.4662e-11,
-1050000,4.4836e-11,
-950000,4.3595e-11,
-850000,4.4318e-11,
-750000,4.2743e-11,
-650000,4.1961e-11,
-550000,4.1016e-11,
-450000,4.1555e-11,
-350000,4.0818e-11,
-250000,4.11e-11,
-150000,3.9562e-11,
-50000,3.9548e-11,
50000,4.0467e-11,
150000,3.9561e-11,
