General parameters:
Start time: 2023              8             21             15             42      43.930672
Finish time: 2023              8             21             15             48      38.503859
Dwell time (ms): 3000.000000
Source chamber pressure: 2.00e+3
Differential chamber pressure: 7.99e-07
Sample chamber pressure: 3.84e-08
Example position (nm): -3357004.927745,311543.451167,-1000000.000000
Rotation angle (udeg): 97500110.000000
==========
Instrument status: 
0:Data Directory:/icon/data/2023_08_MoS2_5um_hbn_sub/
1:Sample:MoS2
2:Comments:no
3:PinholePlate:#C13
4:z_Zero:4200
5:Operator:djw77/nav31/kw570
==========
zscan inputs: 
z_sep:50000
z_range:200000 -5000000
data_path:/icon/data/2023_08_MoS2_5um_hbn_sub/
example_pos:-3357004.9277      311543.45117          -1000000
N_dwell:200
sampling_period:15
make_plots:0
m1:0.98976
m2:-0.0073571
==========
Detector params:
Sampling period (ms): 15.000000
N dwell: 200.000000
Filament current (A): 1.540000
Filament emission (mA): 1.741806
Solenoid current (A): NaN
Solenoid shim current (A): NaN
Lens params:
0  685
1  300
2  125
3      -0.002
4       -0.01
5       0.012
6         0.8
7         2.1
8         2.8
9  3000
10  1450
11         0.85
12   0
==========
Data:
z(nm),I(A)
200000,5.0381e-11,
100000,5.2772e-11,
0,5.3423e-11,
-100000,5.3659e-11,
-200000,5.3531e-11,
-300000,5.3878e-11,
-400000,5.2752e-11,
-500000,5.6039e-11,
-600000,6.2783e-11,
-700000,7.5554e-11,
-800000,9.9683e-11,
-900000,1.259e-10,
-1000000,1.267e-10,
-1100000,1.0595e-10,
-1200000,8.5633e-11,
-1300000,7.1493e-11,
-1400000,6.2877e-11,
-1500000,5.8705e-11,
-1600000,5.628e-11,
-1700000,5.4385e-11,
-1800000,5.3519e-11,
-1900000,5.2653e-11,
-2000000,5.2657e-11,
-2100000,5.2564e-11,
-2200000,5.1727e-11,
-2300000,5.5406e-11,
-2400000,6.1937e-11,
-2500000,6.4244e-11,
-2600000,6.6358e-11,
-2700000,6.053e-11,
-2800000,5.5012e-11,
-2900000,4.8939e-11,
-3000000,4.6151e-11,
-3100000,4.324e-11,
-3200000,4.2186e-11,
-3300000,4.1735e-11,
-3400000,3.9936e-11,
-3500000,4.0818e-11,
-3600000,3.9177e-11,
-3700000,3.784e-11,
-3800000,3.6127e-11,
-3900000,3.5127e-11,
-4000000,3.3714e-11,
-4100000,3.3074e-11,
-4200000,3.3417e-11,
-4300000,3.3144e-11,
-4400000,3.3825e-11,
-4500000,3.3564e-11,
-4600000,3.2862e-11,
-4700000,3.2467e-11,
-4800000,3.1908e-11,
-4900000,3.0857e-11,
-5000000,2.9204e-11,
-4950000,2.8882e-11,
-4850000,3.0797e-11,
-4750000,3.2697e-11,
-4650000,3.2984e-11,
-4550000,3.4075e-11,
-4450000,3.3899e-11,
-4350000,3.3486e-11,
-4250000,3.3263e-11,
-4150000,3.4477e-11,
-4050000,3.3482e-11,
-3950000,3.3936e-11,
-3850000,3.5365e-11,
-3750000,3.6074e-11,
-3650000,3.7907e-11,
-3550000,3.9368e-11,
-3450000,3.9704e-11,
-3350000,4.0805e-11,
-3250000,4.2291e-11,
-3150000,4.1142e-11,
-3050000,4.3368e-11,
-2950000,4.6673e-11,
-2850000,5.1264e-11,
-2750000,5.6782e-11,
-2650000,6.3951e-11,
-2550000,6.4463e-11,
-2450000,6.4166e-11,
-2350000,5.9732e-11,
-2250000,5.5273e-11,
-2150000,5.2433e-11,
-2050000,5.0977e-11,
-1950000,5.1459e-11,
-1850000,5.4059e-11,
-1750000,5.4476e-11,
-1650000,5.5922e-11,
-1550000,5.8595e-11,
-1450000,5.9994e-11,
-1350000,6.6375e-11,
-1250000,7.4469e-11,
-1150000,9.1158e-11,
-1050000,1.1963e-10,
-950000,1.301e-10,
-850000,1.2006e-10,
-750000,9.0024e-11,
-650000,7.0674e-11,
-550000,6.106e-11,
-450000,5.6328e-11,
-350000,5.2553e-11,
-250000,5.3185e-11,
-150000,5.4971e-11,
-50000,5.31e-11,
50000,5.3752e-11,
150000,5.1841e-11,
