General parameters:
Start time: 2023              8             21             21             15      26.874243
Finish time: 2023              8             21             21             21      22.377648
Dwell time (ms): 3000.000000
Source chamber pressure: 2.00e+3
Differential chamber pressure: 7.97e-07
Sample chamber pressure: 3.84e-08
Example position (nm): -3747738.590362,221076.381763,-1000000.000000
Rotation angle (udeg): 70000170.000000
==========
Instrument status: 
0:Data Directory:/icon/data/2023_08_MoS2_5um_hbn_sub/
1:Sample:MoS2
2:Comments:no
3:PinholePlate:#C13
4:z_Zero:4200
5:Operator:djw77/nav31/kw570
==========
zscan inputs: 
z_sep:50000
z_range:200000 -5000000
data_path:/icon/data/2023_08_MoS2_5um_hbn_sub/
example_pos:-3747738.5904      221076.38176          -1000000
N_dwell:200
sampling_period:15
make_plots:0
m1:0.98976
m2:-0.0073571
==========
Detector params:
Sampling period (ms): 15.000000
N dwell: 200.000000
Filament current (A): 1.540000
Filament emission (mA): 1.735650
Solenoid current (A): NaN
Solenoid shim current (A): NaN
Lens params:
0  685
1  300
2  125
3      -0.002
4       -0.01
5       0.012
6         0.8
7         2.1
8         2.8
9  3000
10  1450
11         0.85
12   0
==========
Data:
z(nm),I(A)
200000,4.3086e-11,
100000,4.2634e-11,
0,4.2135e-11,
-100000,4.2361e-11,
-200000,4.1831e-11,
-300000,4.3937e-11,
-400000,4.2798e-11,
-500000,4.3947e-11,
-600000,4.4421e-11,
-700000,4.5195e-11,
-800000,4.6738e-11,
-900000,4.5401e-11,
-1000000,4.6914e-11,
-1100000,4.7689e-11,
-1200000,4.6874e-11,
-1300000,4.8128e-11,
-1400000,4.772e-11,
-1500000,4.8412e-11,
-1600000,4.7816e-11,
-1700000,4.8271e-11,
-1800000,4.9366e-11,
-1900000,4.8345e-11,
-2000000,4.9319e-11,
-2100000,4.8263e-11,
-2200000,4.8809e-11,
-2300000,4.7432e-11,
-2400000,4.734e-11,
-2500000,4.7192e-11,
-2600000,4.6457e-11,
-2700000,4.6121e-11,
-2800000,4.5227e-11,
-2900000,4.4338e-11,
-3000000,4.4952e-11,
-3100000,4.3249e-11,
-3200000,4.288e-11,
-3300000,4.1893e-11,
-3400000,4.1234e-11,
-3500000,4.111e-11,
-3600000,3.9692e-11,
-3700000,3.907e-11,
-3800000,3.8532e-11,
-3900000,3.7256e-11,
-4000000,3.7773e-11,
-4100000,3.6959e-11,
-4200000,3.5667e-11,
-4300000,3.5459e-11,
-4400000,3.3992e-11,
-4500000,3.4045e-11,
-4600000,3.3486e-11,
-4700000,3.2583e-11,
-4800000,3.2528e-11,
-4900000,3.1656e-11,
-5000000,3.1284e-11,
-4950000,3.1644e-11,
-4850000,3.1652e-11,
-4750000,3.224e-11,
-4650000,3.3357e-11,
-4550000,3.3213e-11,
-4450000,3.354e-11,
-4350000,3.4308e-11,
-4250000,3.5534e-11,
-4150000,3.6199e-11,
-4050000,3.6768e-11,
-3950000,3.7532e-11,
-3850000,3.864e-11,
-3750000,3.9265e-11,
-3650000,3.9366e-11,
-3550000,4.006e-11,
-3450000,4.1096e-11,
-3350000,4.178e-11,
-3250000,4.3034e-11,
-3150000,4.2338e-11,
-3050000,4.4425e-11,
-2950000,4.4509e-11,
-2850000,4.4545e-11,
-2750000,4.5924e-11,
-2650000,4.5671e-11,
-2550000,4.6536e-11,
-2450000,4.7007e-11,
-2350000,4.8096e-11,
-2250000,4.7644e-11,
-2150000,4.8401e-11,
-2050000,4.8101e-11,
-1950000,4.8892e-11,
-1850000,4.8808e-11,
-1750000,4.8642e-11,
-1650000,4.9264e-11,
-1550000,4.8179e-11,
-1450000,4.9282e-11,
-1350000,4.7557e-11,
-1250000,4.7817e-11,
-1150000,4.7308e-11,
-1050000,4.6551e-11,
-950000,4.5793e-11,
-850000,4.6541e-11,
-750000,4.5558e-11,
-650000,4.5486e-11,
-550000,4.494e-11,
-450000,4.3882e-11,
-350000,4.3764e-11,
-250000,4.2812e-11,
-150000,4.3195e-11,
-50000,4.1857e-11,
50000,4.2927e-11,
150000,4.26e-11,
