General parameters:
Start time: 2023              8             23             12             41      11.334929
Finish time: 2023              8             23             12             47        8.79446
Dwell time (ms): 3000.000000
Source chamber pressure: 2.00e+3
Differential chamber pressure: 7.72e-07
Sample chamber pressure: 3.79e-08
Example position (nm): -3872759.135517,137717.556962,-1000000.000000
Rotation angle (udeg): 60000275.000000
==========
Instrument status: 
0:Data Directory:/icon/data/2023_08_MoS2_5um_hbn_sub/
1:Sample:MoS2
2:Comments:no
3:PinholePlate:#C13
4:z_Zero:4200
5:Operator:djw77/nav31/kw570
==========
zscan inputs: 
z_sep:50000
z_range:200000 -5000000
data_path:/icon/data/2023_08_MoS2_5um_hbn_sub/
example_pos:-3872759.1355      137717.55696          -1000000
N_dwell:200
sampling_period:15
make_plots:1
m1:0.98976
m2:-0.0073571
==========
Detector params:
Sampling period (ms): 15.000000
N dwell: 200.000000
Filament current (A): 1.540000
Filament emission (mA): 1.781820
Solenoid current (A): NaN
Solenoid shim current (A): NaN
Lens params:
0  685
1  300
2  125
3      -0.002
4       -0.01
5       0.012
6         0.8
7         2.1
8         2.8
9  3000
10  1450
11         0.85
12   0
==========
Data:
z(nm),I(A)
200000,3.3969e-11,
100000,3.4176e-11,
0,3.4213e-11,
-100000,3.4372e-11,
-200000,3.4052e-11,
-300000,3.5057e-11,
-400000,3.5406e-11,
-500000,3.5617e-11,
-600000,3.5753e-11,
-700000,3.6257e-11,
-800000,3.6703e-11,
-900000,3.7203e-11,
-1000000,3.7805e-11,
-1100000,3.9423e-11,
-1200000,3.8674e-11,
-1300000,3.8615e-11,
-1400000,4.0039e-11,
-1500000,4.0196e-11,
-1600000,4.01e-11,
-1700000,4.0052e-11,
-1800000,3.9549e-11,
-1900000,4.0041e-11,
-2000000,3.8724e-11,
-2100000,3.9301e-11,
-2200000,3.9177e-11,
-2300000,3.9142e-11,
-2400000,3.757e-11,
-2500000,3.872e-11,
-2600000,3.7409e-11,
-2700000,3.6374e-11,
-2800000,3.6593e-11,
-2900000,3.5592e-11,
-3000000,3.6026e-11,
-3100000,3.512e-11,
-3200000,3.4954e-11,
-3300000,3.4561e-11,
-3400000,3.3295e-11,
-3500000,3.2636e-11,
-3600000,3.2271e-11,
-3700000,3.2119e-11,
-3800000,3.0566e-11,
-3900000,3.1051e-11,
-4000000,3.0075e-11,
-4100000,2.9617e-11,
-4200000,3.0285e-11,
-4300000,2.8667e-11,
-4400000,2.8039e-11,
-4500000,2.7063e-11,
-4600000,2.7437e-11,
-4700000,2.6353e-11,
-4800000,2.6272e-11,
-4900000,2.6221e-11,
-5000000,2.4432e-11,
-4950000,2.542e-11,
-4850000,2.6069e-11,
-4750000,2.6682e-11,
-4650000,2.692e-11,
-4550000,2.6641e-11,
-4450000,2.8276e-11,
-4350000,2.8989e-11,
-4250000,2.8822e-11,
-4150000,2.8951e-11,
-4050000,3.0119e-11,
-3950000,3.0261e-11,
-3850000,3.1523e-11,
-3750000,3.1529e-11,
-3650000,3.0938e-11,
-3550000,3.228e-11,
-3450000,3.3344e-11,
-3350000,3.4625e-11,
-3250000,3.3959e-11,
-3150000,3.4926e-11,
-3050000,3.5388e-11,
-2950000,3.6334e-11,
-2850000,3.608e-11,
-2750000,3.7189e-11,
-2650000,3.8487e-11,
-2550000,3.8828e-11,
-2450000,3.8036e-11,
-2350000,3.8767e-11,
-2250000,3.9414e-11,
-2150000,3.8646e-11,
-2050000,3.9932e-11,
-1950000,3.9938e-11,
-1850000,4.0832e-11,
-1750000,3.9795e-11,
-1650000,3.9953e-11,
-1550000,4.0831e-11,
-1450000,4.0209e-11,
-1350000,3.9419e-11,
-1250000,3.8959e-11,
-1150000,3.8665e-11,
-1050000,3.8745e-11,
-950000,3.8381e-11,
-850000,3.7604e-11,
-750000,3.6736e-11,
-650000,3.6519e-11,
-550000,3.6206e-11,
-450000,3.5599e-11,
-350000,3.4055e-11,
-250000,3.4373e-11,
-150000,3.4525e-11,
-50000,3.4051e-11,
50000,3.4042e-11,
150000,3.4929e-11,
