General parameters:
Start time: 2023              8             21             14             48      38.971091
Finish time: 2023              8             21             14             54      33.625141
Dwell time (ms): 3000.000000
Source chamber pressure: 2.00e+3
Differential chamber pressure: 7.98e-07
Sample chamber pressure: 3.84e-08
Example position (nm): -3675628.062273,240883.216152,-1000000.000000
Rotation angle (udeg): 74999950.000000
==========
Instrument status: 
0:Data Directory:/icon/data/2023_08_MoS2_5um_hbn_sub/
1:Sample:MoS2
2:Comments:no
3:PinholePlate:#C13
4:z_Zero:4200
5:Operator:djw77/nav31/kw570
==========
zscan inputs: 
z_sep:50000
z_range:200000 -5000000
data_path:/icon/data/2023_08_MoS2_5um_hbn_sub/
example_pos:-3675628.0623      240883.21615          -1000000
N_dwell:200
sampling_period:15
make_plots:0
m1:0.98976
m2:-0.0073571
==========
Detector params:
Sampling period (ms): 15.000000
N dwell: 200.000000
Filament current (A): 1.540000
Filament emission (mA): 1.741806
Solenoid current (A): NaN
Solenoid shim current (A): NaN
Lens params:
0  685
1  300
2  125
3      -0.002
4       -0.01
5       0.012
6         0.8
7         2.1
8         2.8
9  3000
10  1450
11         0.85
12   0
==========
Data:
z(nm),I(A)
200000,4.2803e-11,
100000,4.2305e-11,
0,4.2859e-11,
-100000,4.2234e-11,
-200000,4.2346e-11,
-300000,4.2326e-11,
-400000,4.2902e-11,
-500000,4.4015e-11,
-600000,4.5297e-11,
-700000,4.6046e-11,
-800000,4.6173e-11,
-900000,4.7651e-11,
-1000000,4.6869e-11,
-1100000,4.7487e-11,
-1200000,4.7354e-11,
-1300000,4.7148e-11,
-1400000,4.8401e-11,
-1500000,4.8361e-11,
-1600000,4.807e-11,
-1700000,4.8561e-11,
-1800000,5.0048e-11,
-1900000,4.8295e-11,
-2000000,4.8305e-11,
-2100000,4.8628e-11,
-2200000,4.741e-11,
-2300000,4.7239e-11,
-2400000,4.6489e-11,
-2500000,4.7795e-11,
-2600000,4.6566e-11,
-2700000,4.6025e-11,
-2800000,4.4047e-11,
-2900000,4.5592e-11,
-3000000,4.3688e-11,
-3100000,4.4544e-11,
-3200000,4.237e-11,
-3300000,4.3365e-11,
-3400000,4.2765e-11,
-3500000,4.1248e-11,
-3600000,3.9667e-11,
-3700000,3.9266e-11,
-3800000,3.7883e-11,
-3900000,3.8372e-11,
-4000000,3.7607e-11,
-4100000,3.6776e-11,
-4200000,3.6284e-11,
-4300000,3.498e-11,
-4400000,3.4309e-11,
-4500000,3.2557e-11,
-4600000,3.2766e-11,
-4700000,3.1898e-11,
-4800000,3.1644e-11,
-4900000,2.9717e-11,
-5000000,2.8826e-11,
-4950000,2.8461e-11,
-4850000,2.9766e-11,
-4750000,3.1181e-11,
-4650000,3.2123e-11,
-4550000,3.2567e-11,
-4450000,3.3252e-11,
-4350000,3.3592e-11,
-4250000,3.5133e-11,
-4150000,3.5753e-11,
-4050000,3.713e-11,
-3950000,3.7472e-11,
-3850000,3.8684e-11,
-3750000,3.9506e-11,
-3650000,3.9984e-11,
-3550000,4.1028e-11,
-3450000,4.2646e-11,
-3350000,4.4986e-11,
-3250000,4.5239e-11,
-3150000,4.4679e-11,
-3050000,4.3509e-11,
-2950000,4.4796e-11,
-2850000,4.539e-11,
-2750000,4.8406e-11,
-2650000,4.7669e-11,
-2550000,4.7616e-11,
-2450000,4.688e-11,
-2350000,4.8146e-11,
-2250000,4.8706e-11,
-2150000,4.8512e-11,
-2050000,5.0116e-11,
-1950000,4.9539e-11,
-1850000,4.8773e-11,
-1750000,4.8642e-11,
-1650000,5.0369e-11,
-1550000,4.8983e-11,
-1450000,4.8452e-11,
-1350000,4.8348e-11,
-1250000,4.9604e-11,
-1150000,4.7327e-11,
-1050000,4.734e-11,
-950000,4.8717e-11,
-850000,4.7008e-11,
-750000,4.5039e-11,
-650000,4.4292e-11,
-550000,4.438e-11,
-450000,4.3561e-11,
-350000,4.3265e-11,
-250000,4.3516e-11,
-150000,4.2671e-11,
-50000,4.239e-11,
50000,4.1431e-11,
150000,4.2039e-11,
