General parameters:
Start time: 2023              8             19             14             44      56.381027
Finish time: 2023              8             19             14             50      52.759063
Dwell time (ms): 3000.000000
Source chamber pressure: 2.00e+3
Differential chamber pressure: 7.96e-07
Sample chamber pressure: 3.88e-08
Example position (nm): -3800602.141465,149876.541459,-1000000.000000
Rotation angle (udeg): 67500185.000000
==========
Instrument status: 
0:Data Directory:/icon/data/2023_08_MoS2_5um_hbn_sub/
1:Sample:MoS2
2:Comments:no
3:PinholePlate:#C13
4:z_Zero:4200
5:Operator:djw77/nav31/kw570
==========
zscan inputs: 
z_sep:50000
z_range:200000 -5000000
data_path:/icon/data/2023_08_MoS2_5um_hbn_sub/
example_pos:-3800602.1415      149876.54146          -1000000
N_dwell:200
sampling_period:15
make_plots:0
m1:0.98976
m2:-0.0073571
==========
Detector params:
Sampling period (ms): 15.000000
N dwell: 200.000000
Filament current (A): 1.540000
Filament emission (mA): 1.680930
Solenoid current (A): NaN
Solenoid shim current (A): NaN
Lens params:
0  685
1  300
2  125
3      -0.002
4       -0.01
5       0.012
6         0.8
7         2.1
8         2.8
9  3000
10  1450
11         0.85
12   0
==========
Data:
z(nm),I(A)
200000,1.0991e-10,
100000,1.0254e-10,
0,8.7449e-11,
-100000,7.5148e-11,
-200000,6.7104e-11,
-300000,5.7745e-11,
-400000,5.3171e-11,
-500000,5.1827e-11,
-600000,5.5443e-11,
-700000,6.7148e-11,
-800000,8.9136e-11,
-900000,1.2402e-10,
-1000000,1.4041e-10,
-1100000,1.4199e-10,
-1200000,1.1549e-10,
-1300000,8.6073e-11,
-1400000,7.081e-11,
-1500000,6.462e-11,
-1600000,6.5483e-11,
-1700000,7.413e-11,
-1800000,8.4628e-11,
-1900000,8.9079e-11,
-2000000,8.6187e-11,
-2100000,7.9359e-11,
-2200000,6.5072e-11,
-2300000,5.6817e-11,
-2400000,5.3593e-11,
-2500000,5.8141e-11,
-2600000,6.8739e-11,
-2700000,8.5223e-11,
-2800000,1.0079e-10,
-2900000,1.0508e-10,
-3000000,9.9191e-11,
-3100000,8.7863e-11,
-3200000,7.0082e-11,
-3300000,5.5464e-11,
-3400000,4.6143e-11,
-3500000,4.1365e-11,
-3600000,4.0706e-11,
-3700000,4.1436e-11,
-3800000,4.3027e-11,
-3900000,4.5486e-11,
-4000000,4.5539e-11,
-4100000,4.5805e-11,
-4200000,4.2467e-11,
-4300000,3.9732e-11,
-4400000,3.5294e-11,
-4500000,3.2119e-11,
-4600000,2.9848e-11,
-4700000,2.8478e-11,
-4800000,2.7431e-11,
-4900000,2.5789e-11,
-5000000,2.5044e-11,
-4950000,2.4938e-11,
-4850000,2.5783e-11,
-4750000,2.6569e-11,
-4650000,2.8215e-11,
-4550000,3.0117e-11,
-4450000,3.3342e-11,
-4350000,3.7013e-11,
-4250000,4.0246e-11,
-4150000,4.4242e-11,
-4050000,4.4439e-11,
-3950000,4.6173e-11,
-3850000,4.4332e-11,
-3750000,4.2533e-11,
-3650000,4.0999e-11,
-3550000,4.2307e-11,
-3450000,4.3597e-11,
-3350000,4.8791e-11,
-3250000,6.0333e-11,
-3150000,7.5923e-11,
-3050000,9.3283e-11,
-2950000,1.0367e-10,
-2850000,1.0338e-10,
-2750000,9.4011e-11,
-2650000,7.7527e-11,
-2550000,6.3972e-11,
-2450000,5.5116e-11,
-2350000,5.3493e-11,
-2250000,5.7784e-11,
-2150000,7.0112e-11,
-2050000,8.3007e-11,
-1950000,8.892e-11,
-1850000,8.8586e-11,
-1750000,7.9104e-11,
-1650000,6.919e-11,
-1550000,6.465e-11,
-1450000,6.6117e-11,
-1350000,7.51e-11,
-1250000,9.5181e-11,
-1150000,1.2858e-10,
-1050000,1.4283e-10,
-950000,1.349e-10,
-850000,1.1265e-10,
-750000,7.8449e-11,
-650000,6.2968e-11,
-550000,5.495e-11,
-450000,5.204e-11,
-350000,5.4727e-11,
-250000,6.0369e-11,
-150000,6.8294e-11,
-50000,7.8615e-11,
50000,9.0472e-11,
150000,1.0562e-10,
