General parameters:
Start time: 2023              8             19             15             21      18.696139
Finish time: 2023              8             19             15             27      19.367764
Dwell time (ms): 3000.000000
Source chamber pressure: 2.00e+3
Differential chamber pressure: 7.96e-07
Sample chamber pressure: 3.84e-08
Example position (nm): -3584954.767718,251927.884576,-1000000.000000
Rotation angle (udeg): 82500305.000000
==========
Instrument status: 
0:Data Directory:/icon/data/2023_08_MoS2_5um_hbn_sub/
1:Sample:MoS2
2:Comments:no
3:PinholePlate:#C13
4:z_Zero:4200
5:Operator:djw77/nav31/kw570
==========
zscan inputs: 
z_sep:50000
z_range:200000 -5000000
data_path:/icon/data/2023_08_MoS2_5um_hbn_sub/
example_pos:-3584954.7677      251927.88458          -1000000
N_dwell:200
sampling_period:15
make_plots:0
m1:0.98976
m2:-0.0073571
==========
Detector params:
Sampling period (ms): 15.000000
N dwell: 200.000000
Filament current (A): 1.540000
Filament emission (mA): 1.684692
Solenoid current (A): NaN
Solenoid shim current (A): NaN
Lens params:
0  685
1  300
2  125
3      -0.002
4       -0.01
5       0.012
6         0.8
7         2.1
8         2.8
9  3000
10  1450
11         0.85
12   0
==========
Data:
z(nm),I(A)
200000,1.0401e-10,
100000,8.6899e-11,
0,7.7609e-11,
-100000,7.3896e-11,
-200000,6.2889e-11,
-300000,5.7509e-11,
-400000,5.2622e-11,
-500000,5.0864e-11,
-600000,5.3703e-11,
-700000,6.8505e-11,
-800000,9.5022e-11,
-900000,1.3255e-10,
-1000000,1.4046e-10,
-1100000,1.2411e-10,
-1200000,8.319e-11,
-1300000,6.3522e-11,
-1400000,5.5176e-11,
-1500000,5.286e-11,
-1600000,5.0909e-11,
-1700000,5.1663e-11,
-1800000,5.336e-11,
-1900000,5.3241e-11,
-2000000,5.2608e-11,
-2100000,4.9383e-11,
-2200000,4.8709e-11,
-2300000,4.8061e-11,
-2400000,4.931e-11,
-2500000,4.8526e-11,
-2600000,4.8389e-11,
-2700000,4.8135e-11,
-2800000,4.4641e-11,
-2900000,4.3398e-11,
-3000000,4.2582e-11,
-3100000,4.3145e-11,
-3200000,4.336e-11,
-3300000,4.4428e-11,
-3400000,4.5943e-11,
-3500000,4.6053e-11,
-3600000,4.417e-11,
-3700000,4.1968e-11,
-3800000,3.9634e-11,
-3900000,3.5584e-11,
-4000000,3.3899e-11,
-4100000,3.013e-11,
-4200000,3.0906e-11,
-4300000,2.9676e-11,
-4400000,2.9745e-11,
-4500000,2.8606e-11,
-4600000,2.8233e-11,
-4700000,2.8636e-11,
-4800000,2.8762e-11,
-4900000,2.7759e-11,
-5000000,2.7468e-11,
-4950000,2.7762e-11,
-4850000,2.7994e-11,
-4750000,2.8503e-11,
-4650000,2.9254e-11,
-4550000,2.9084e-11,
-4450000,2.8967e-11,
-4350000,2.9311e-11,
-4250000,2.9477e-11,
-4150000,3.0844e-11,
-4050000,3.2086e-11,
-3950000,3.3901e-11,
-3850000,3.6969e-11,
-3750000,4.0674e-11,
-3650000,4.2907e-11,
-3550000,4.5282e-11,
-3450000,4.5099e-11,
-3350000,4.4698e-11,
-3250000,4.4027e-11,
-3150000,4.2449e-11,
-3050000,4.2937e-11,
-2950000,4.3562e-11,
-2850000,4.4987e-11,
-2750000,4.6729e-11,
-2650000,4.7836e-11,
-2550000,4.8701e-11,
-2450000,4.9311e-11,
-2350000,4.8874e-11,
-2250000,4.8587e-11,
-2150000,4.9759e-11,
-2050000,5.1344e-11,
-1950000,5.1999e-11,
-1850000,5.3521e-11,
-1750000,5.4458e-11,
-1650000,5.3383e-11,
-1550000,5.5848e-11,
-1450000,5.823e-11,
-1350000,6.6616e-11,
-1250000,8.1164e-11,
-1150000,1.1162e-10,
-1050000,1.349e-10,
-950000,1.3568e-10,
-850000,1.2209e-10,
-750000,8.3455e-11,
-650000,6.3453e-11,
-550000,5.2495e-11,
-450000,5.0638e-11,
-350000,5.3117e-11,
-250000,5.7971e-11,
-150000,6.5049e-11,
-50000,6.8107e-11,
50000,6.8071e-11,
150000,7.7819e-11,
