General parameters:
Start time: 2023              8             18             18             14      40.694877
Finish time: 2023              8             18             18             20      38.538758
Dwell time (ms): 3000.000000
Source chamber pressure: 2.00e+3
Differential chamber pressure: 7.95e-07
Sample chamber pressure: 3.84e-08
Example position (nm): -3636287.038687,229429.481973,-1000000.000000
Rotation angle (udeg): 77499930.000000
==========
Instrument status: 
0:Data Directory:/icon/data/2023_08_MoS2_5um_hbn_sub/
1:Sample:MoS2
2:Comments:no
3:PinholePlate:#C13
4:z_Zero:4200
5:Operator:djw77/nav31/kw570
==========
zscan inputs: 
z_sep:50000
z_range:200000 -5000000
data_path:/icon/data/2023_08_MoS2_5um_hbn_sub/
example_pos:-3636287.0387      229429.48197          -1000000
N_dwell:200
sampling_period:15
make_plots:0
m1:0.98976
m2:-0.0073571
==========
Detector params:
Sampling period (ms): 15.000000
N dwell: 200.000000
Filament current (A): 1.540000
Filament emission (mA): 1.658700
Solenoid current (A): NaN
Solenoid shim current (A): NaN
Lens params:
0  685
1  300
2  125
3      -0.002
4       -0.01
5       0.012
6         0.8
7         2.1
8         2.8
9  3000
10  1450
11         0.85
12   0
==========
Data:
z(nm),I(A)
200000,4.3752e-11,
100000,4.5312e-11,
0,4.5241e-11,
-100000,4.1e-11,
-200000,4.1382e-11,
-300000,4.1332e-11,
-400000,4.0143e-11,
-500000,4.1795e-11,
-600000,4.3426e-11,
-700000,4.5859e-11,
-800000,4.3844e-11,
-900000,4.4505e-11,
-1000000,4.6901e-11,
-1100000,5.0194e-11,
-1200000,4.912e-11,
-1300000,5.3009e-11,
-1400000,5.2017e-11,
-1500000,4.9809e-11,
-1600000,4.8078e-11,
-1700000,4.7465e-11,
-1800000,4.7375e-11,
-1900000,4.7858e-11,
-2000000,4.612e-11,
-2100000,4.3974e-11,
-2200000,4.3596e-11,
-2300000,4.2551e-11,
-2400000,4.335e-11,
-2500000,4.2684e-11,
-2600000,4.1732e-11,
-2700000,4.106e-11,
-2800000,4.0379e-11,
-2900000,4.1315e-11,
-3000000,3.8826e-11,
-3100000,3.7522e-11,
-3200000,3.6708e-11,
-3300000,3.6585e-11,
-3400000,3.4895e-11,
-3500000,3.4604e-11,
-3600000,3.3394e-11,
-3700000,3.3443e-11,
-3800000,3.2944e-11,
-3900000,3.1751e-11,
-4000000,3.1771e-11,
-4100000,3.1444e-11,
-4200000,3.0418e-11,
-4300000,2.9594e-11,
-4400000,2.9014e-11,
-4500000,2.8202e-11,
-4600000,2.7898e-11,
-4700000,2.7715e-11,
-4800000,2.6834e-11,
-4900000,2.6356e-11,
-5000000,2.5964e-11,
-4950000,2.6872e-11,
-4850000,2.6477e-11,
-4750000,2.7313e-11,
-4650000,2.6745e-11,
-4550000,2.8535e-11,
-4450000,2.7882e-11,
-4350000,2.9139e-11,
-4250000,2.9685e-11,
-4150000,2.9992e-11,
-4050000,3.062e-11,
-3950000,3.1412e-11,
-3850000,3.1957e-11,
-3750000,3.2406e-11,
-3650000,3.3652e-11,
-3550000,3.3978e-11,
-3450000,3.4394e-11,
-3350000,3.5428e-11,
-3250000,3.5116e-11,
-3150000,3.6372e-11,
-3050000,3.7289e-11,
-2950000,3.9427e-11,
-2850000,3.9012e-11,
-2750000,3.9445e-11,
-2650000,3.9107e-11,
-2550000,4.0407e-11,
-2450000,4.0461e-11,
-2350000,4.1182e-11,
-2250000,4.0634e-11,
-2150000,4.0541e-11,
-2050000,4.141e-11,
-1950000,4.265e-11,
-1850000,4.3652e-11,
-1750000,4.2407e-11,
-1650000,4.3052e-11,
-1550000,4.5735e-11,
-1450000,4.6573e-11,
-1350000,4.6696e-11,
-1250000,4.8866e-11,
-1150000,4.7271e-11,
-1050000,4.5011e-11,
-950000,4.2396e-11,
-850000,4.1089e-11,
-750000,4.365e-11,
-650000,4.3474e-11,
-550000,4.1827e-11,
-450000,4.1104e-11,
-350000,4.0436e-11,
-250000,4.1394e-11,
-150000,4.1295e-11,
-50000,4.188e-11,
50000,4.398e-11,
150000,4.5429e-11,
