General parameters:
Start time: 2023              8             19             14              8      40.186516
Finish time: 2023              8             19             14             14      38.965541
Dwell time (ms): 3000.000000
Source chamber pressure: 2.00e+3
Differential chamber pressure: 7.96e-07
Sample chamber pressure: 3.88e-08
Example position (nm): -3982488.677961,-4511.133816,-1000000.000000
Rotation angle (udeg): 52499570.000000
==========
Instrument status: 
0:Data Directory:/icon/data/2023_08_MoS2_5um_hbn_sub/
1:Sample:MoS2
2:Comments:no
3:PinholePlate:#C13
4:z_Zero:4200
5:Operator:djw77/nav31/kw570
==========
zscan inputs: 
z_sep:50000
z_range:200000 -5000000
data_path:/icon/data/2023_08_MoS2_5um_hbn_sub/
example_pos:-3982488.678     -4511.1338158          -1000000
N_dwell:200
sampling_period:15
make_plots:0
m1:0.98976
m2:-0.0073571
==========
Detector params:
Sampling period (ms): 15.000000
N dwell: 200.000000
Filament current (A): 1.540000
Filament emission (mA): 1.679904
Solenoid current (A): NaN
Solenoid shim current (A): NaN
Lens params:
0  685
1  300
2  125
3      -0.002
4       -0.01
5       0.012
6         0.8
7         2.1
8         2.8
9  3000
10  1450
11         0.85
12   0
==========
Data:
z(nm),I(A)
200000,4.0213e-11,
100000,4.0129e-11,
0,4.1236e-11,
-100000,4.1254e-11,
-200000,4.1398e-11,
-300000,4.2022e-11,
-400000,4.2613e-11,
-500000,4.4359e-11,
-600000,4.695e-11,
-700000,4.7899e-11,
-800000,5.1101e-11,
-900000,5.9959e-11,
-1000000,5.8853e-11,
-1100000,5.7314e-11,
-1200000,5.8552e-11,
-1300000,5.654e-11,
-1400000,5.5677e-11,
-1500000,5.4606e-11,
-1600000,5.3606e-11,
-1700000,5.2705e-11,
-1800000,5.2404e-11,
-1900000,5.1456e-11,
-2000000,5.0777e-11,
-2100000,5.1619e-11,
-2200000,4.9031e-11,
-2300000,4.8195e-11,
-2400000,4.7837e-11,
-2500000,4.789e-11,
-2600000,4.7369e-11,
-2700000,4.7287e-11,
-2800000,4.5724e-11,
-2900000,4.5137e-11,
-3000000,4.4828e-11,
-3100000,4.3339e-11,
-3200000,4.1942e-11,
-3300000,4.1849e-11,
-3400000,4.1751e-11,
-3500000,4.0623e-11,
-3600000,4.0032e-11,
-3700000,3.785e-11,
-3800000,3.7863e-11,
-3900000,3.5616e-11,
-4000000,3.3402e-11,
-4100000,3.3068e-11,
-4200000,3.2557e-11,
-4300000,3.0602e-11,
-4400000,2.9785e-11,
-4500000,2.9282e-11,
-4600000,2.8484e-11,
-4700000,2.8017e-11,
-4800000,2.8063e-11,
-4900000,2.6761e-11,
-5000000,2.6336e-11,
-4950000,2.6429e-11,
-4850000,2.6611e-11,
-4750000,2.749e-11,
-4650000,2.7719e-11,
-4550000,2.7943e-11,
-4450000,2.976e-11,
-4350000,3.0747e-11,
-4250000,3.1279e-11,
-4150000,3.1984e-11,
-4050000,3.3497e-11,
-3950000,3.5191e-11,
-3850000,3.578e-11,
-3750000,3.7454e-11,
-3650000,3.8022e-11,
-3550000,4.0917e-11,
-3450000,4.0541e-11,
-3350000,4.1976e-11,
-3250000,4.1925e-11,
-3150000,4.2823e-11,
-3050000,4.4325e-11,
-2950000,4.4802e-11,
-2850000,4.509e-11,
-2750000,4.6108e-11,
-2650000,4.6045e-11,
-2550000,4.7541e-11,
-2450000,4.8942e-11,
-2350000,4.7506e-11,
-2250000,4.8289e-11,
-2150000,4.9879e-11,
-2050000,5.0986e-11,
-1950000,5.1458e-11,
-1850000,5.3107e-11,
-1750000,5.2836e-11,
-1650000,5.3438e-11,
-1550000,5.3774e-11,
-1450000,5.621e-11,
-1350000,5.8428e-11,
-1250000,5.8878e-11,
-1150000,6.079e-11,
-1050000,5.9574e-11,
-950000,6.222e-11,
-850000,5.9861e-11,
-750000,5.1486e-11,
-650000,4.7779e-11,
-550000,4.6051e-11,
-450000,4.3852e-11,
-350000,4.1902e-11,
-250000,4.2805e-11,
-150000,4.091e-11,
-50000,4.0248e-11,
50000,4.2233e-11,
150000,4.1783e-11,
