General parameters:
Start time: 2023              8             21             15              6       39.17847
Finish time: 2023              8             21             15             12      35.206696
Dwell time (ms): 3000.000000
Source chamber pressure: 2.00e+3
Differential chamber pressure: 7.98e-07
Sample chamber pressure: 3.84e-08
Example position (nm): -3572816.933961,278311.482628,-1000000.000000
Rotation angle (udeg): 82500465.000000
==========
Instrument status: 
0:Data Directory:/icon/data/2023_08_MoS2_5um_hbn_sub/
1:Sample:MoS2
2:Comments:no
3:PinholePlate:#C13
4:z_Zero:4200
5:Operator:djw77/nav31/kw570
==========
zscan inputs: 
z_sep:50000
z_range:200000 -5000000
data_path:/icon/data/2023_08_MoS2_5um_hbn_sub/
example_pos:-3572816.934      278311.48263          -1000000
N_dwell:200
sampling_period:15
make_plots:0
m1:0.98976
m2:-0.0073571
==========
Detector params:
Sampling period (ms): 15.000000
N dwell: 200.000000
Filament current (A): 1.540000
Filament emission (mA): 1.741122
Solenoid current (A): NaN
Solenoid shim current (A): NaN
Lens params:
0  685
1  300
2  125
3      -0.002
4       -0.01
5       0.012
6         0.8
7         2.1
8         2.8
9  3000
10  1450
11         0.85
12   0
==========
Data:
z(nm),I(A)
200000,6.7132e-11,
100000,6.4216e-11,
0,6.9866e-11,
-100000,7.9343e-11,
-200000,8.3704e-11,
-300000,8.5713e-11,
-400000,8.9743e-11,
-500000,8.9592e-11,
-600000,9.2436e-11,
-700000,9.7297e-11,
-800000,1.0522e-10,
-900000,1.0833e-10,
-1000000,1.1182e-10,
-1100000,1.1104e-10,
-1200000,1.0733e-10,
-1300000,1.0169e-10,
-1400000,1.0127e-10,
-1500000,9.9129e-11,
-1600000,9.4099e-11,
-1700000,9.1526e-11,
-1800000,8.8838e-11,
-1900000,8.466e-11,
-2000000,7.9934e-11,
-2100000,7.5341e-11,
-2200000,7.1041e-11,
-2300000,7.1666e-11,
-2400000,6.8122e-11,
-2500000,6.9367e-11,
-2600000,6.5644e-11,
-2700000,6.4491e-11,
-2800000,5.9561e-11,
-2900000,5.9166e-11,
-3000000,5.423e-11,
-3100000,5.2669e-11,
-3200000,5.3375e-11,
-3300000,5.3169e-11,
-3400000,5.2526e-11,
-3500000,5.3476e-11,
-3600000,5.1586e-11,
-3700000,4.8089e-11,
-3800000,4.4818e-11,
-3900000,4.0632e-11,
-4000000,3.6187e-11,
-4100000,3.3434e-11,
-4200000,3.103e-11,
-4300000,3.0976e-11,
-4400000,2.9857e-11,
-4500000,2.9847e-11,
-4600000,2.9876e-11,
-4700000,2.9488e-11,
-4800000,2.7881e-11,
-4900000,2.7842e-11,
-5000000,2.8067e-11,
-4950000,2.8192e-11,
-4850000,2.8182e-11,
-4750000,2.937e-11,
-4650000,2.9132e-11,
-4550000,2.9798e-11,
-4450000,2.9688e-11,
-4350000,3.1544e-11,
-4250000,3.1148e-11,
-4150000,3.3797e-11,
-4050000,3.5864e-11,
-3950000,3.8066e-11,
-3850000,4.0656e-11,
-3750000,4.5418e-11,
-3650000,4.8219e-11,
-3550000,5.0862e-11,
-3450000,5.2258e-11,
-3350000,5.1484e-11,
-3250000,5.2619e-11,
-3150000,5.3715e-11,
-3050000,5.4811e-11,
-2950000,5.751e-11,
-2850000,5.88e-11,
-2750000,6.0323e-11,
-2650000,6.5615e-11,
-2550000,6.7588e-11,
-2450000,6.8783e-11,
-2350000,6.9648e-11,
-2250000,7.1655e-11,
-2150000,7.2074e-11,
-2050000,7.592e-11,
-1950000,7.9665e-11,
-1850000,8.3546e-11,
-1750000,8.7413e-11,
-1650000,8.9921e-11,
-1550000,9.3693e-11,
-1450000,9.9335e-11,
-1350000,1.0165e-10,
-1250000,1.0453e-10,
-1150000,1.0869e-10,
-1050000,1.2005e-10,
-950000,1.1712e-10,
-850000,1.0869e-10,
-750000,1.0073e-10,
-650000,9.4754e-11,
-550000,9.0506e-11,
-450000,8.8135e-11,
-350000,8.5683e-11,
-250000,8.5168e-11,
-150000,8.2894e-11,
-50000,8.1972e-11,
50000,7.9412e-11,
150000,7.8071e-11,
