General parameters:
Start time: 2023              8             18             20             21      32.854174
Finish time: 2023              8             18             20             27      29.622972
Dwell time (ms): 3000.000000
Source chamber pressure: 2.00e+3
Differential chamber pressure: 7.93e-07
Sample chamber pressure: 3.84e-08
Example position (nm): -2834362.673279,160512.266642,-1000000.000000
Rotation angle (udeg): 130000035.000000
==========
Instrument status: 
0:Data Directory:/icon/data/2023_08_MoS2_5um_hbn_sub/
1:Sample:MoS2
2:Comments:no
3:PinholePlate:#C13
4:z_Zero:4200
5:Operator:djw77/nav31/kw570
==========
zscan inputs: 
z_sep:50000
z_range:200000 -5000000
data_path:/icon/data/2023_08_MoS2_5um_hbn_sub/
example_pos:-2834362.6733      160512.26664          -1000000
N_dwell:200
sampling_period:15
make_plots:0
m1:0.98976
m2:-0.0073571
==========
Detector params:
Sampling period (ms): 15.000000
N dwell: 200.000000
Filament current (A): 1.540000
Filament emission (mA): 1.673064
Solenoid current (A): NaN
Solenoid shim current (A): NaN
Lens params:
0  685
1  300
2  125
3      -0.002
4       -0.01
5       0.012
6         0.8
7         2.1
8         2.8
9  3000
10  1450
11         0.85
12   0
==========
Data:
z(nm),I(A)
200000,3.9698e-11,
100000,4.0461e-11,
0,4.1387e-11,
-100000,4.0858e-11,
-200000,4.2529e-11,
-300000,4.1812e-11,
-400000,4.1081e-11,
-500000,4.2078e-11,
-600000,4.1883e-11,
-700000,4.2779e-11,
-800000,4.1845e-11,
-900000,4.2128e-11,
-1000000,4.3306e-11,
-1100000,4.2457e-11,
-1200000,4.2646e-11,
-1300000,4.3638e-11,
-1400000,4.3408e-11,
-1500000,4.2932e-11,
-1600000,4.2095e-11,
-1700000,4.3598e-11,
-1800000,4.2803e-11,
-1900000,4.3288e-11,
-2000000,4.3024e-11,
-2100000,4.1687e-11,
-2200000,4.1775e-11,
-2300000,4.1449e-11,
-2400000,4.1454e-11,
-2500000,3.9557e-11,
-2600000,4.0833e-11,
-2700000,3.9676e-11,
-2800000,4.0688e-11,
-2900000,3.9678e-11,
-3000000,3.8666e-11,
-3100000,3.7617e-11,
-3200000,3.725e-11,
-3300000,3.6406e-11,
-3400000,3.672e-11,
-3500000,3.5174e-11,
-3600000,3.532e-11,
-3700000,3.4401e-11,
-3800000,3.4205e-11,
-3900000,3.3086e-11,
-4000000,3.2931e-11,
-4100000,3.2616e-11,
-4200000,3.1381e-11,
-4300000,3.1192e-11,
-4400000,3.0322e-11,
-4500000,2.8776e-11,
-4600000,2.957e-11,
-4700000,2.8503e-11,
-4800000,2.8284e-11,
-4900000,2.7822e-11,
-5000000,2.648e-11,
-4950000,2.6879e-11,
-4850000,2.7611e-11,
-4750000,2.818e-11,
-4650000,2.8053e-11,
-4550000,2.8662e-11,
-4450000,2.9775e-11,
-4350000,2.9949e-11,
-4250000,3.0855e-11,
-4150000,3.1706e-11,
-4050000,3.239e-11,
-3950000,3.3207e-11,
-3850000,3.3567e-11,
-3750000,3.4609e-11,
-3650000,3.562e-11,
-3550000,3.5726e-11,
-3450000,3.5315e-11,
-3350000,3.6639e-11,
-3250000,3.7293e-11,
-3150000,3.7554e-11,
-3050000,3.6863e-11,
-2950000,3.8578e-11,
-2850000,3.9155e-11,
-2750000,3.9288e-11,
-2650000,4.1003e-11,
-2550000,4.0314e-11,
-2450000,4.1436e-11,
-2350000,4.1334e-11,
-2250000,4.2279e-11,
-2150000,4.2085e-11,
-2050000,4.2102e-11,
-1950000,4.2691e-11,
-1850000,4.278e-11,
-1750000,4.241e-11,
-1650000,4.3609e-11,
-1550000,4.3434e-11,
-1450000,4.3098e-11,
-1350000,4.2936e-11,
-1250000,4.3934e-11,
-1150000,4.3197e-11,
-1050000,4.4482e-11,
-950000,4.3406e-11,
-850000,4.2408e-11,
-750000,4.2104e-11,
-650000,4.201e-11,
-550000,4.1889e-11,
-450000,4.1548e-11,
-350000,4.1489e-11,
-250000,4.0802e-11,
-150000,4.1527e-11,
-50000,4.0867e-11,
50000,4.113e-11,
150000,3.9904e-11,
