General parameters:
Start time: 2023              8             22              2             10       4.637252
Finish time: 2023              8             22              2             16       0.479884
Dwell time (ms): 3000.000000
Source chamber pressure: 2.00e+3
Differential chamber pressure: 7.98e-07
Sample chamber pressure: 3.74e-08
Example position (nm): -3394236.141535,324070.120223,-1000000.000000
Rotation angle (udeg): 95000050.000000
==========
Instrument status: 
0:Data Directory:/icon/data/2023_08_MoS2_5um_hbn_sub/
1:Sample:MoS2
2:Comments:no
3:PinholePlate:#C13
4:z_Zero:4200
5:Operator:djw77/nav31/kw570
==========
zscan inputs: 
z_sep:50000
z_range:200000 -5000000
data_path:/icon/data/2023_08_MoS2_5um_hbn_sub/
example_pos:-3394236.1415      324070.12022          -1000000
N_dwell:200
sampling_period:15
make_plots:0
m1:0.98976
m2:-0.0073571
==========
Detector params:
Sampling period (ms): 15.000000
N dwell: 200.000000
Filament current (A): 1.540000
Filament emission (mA): 1.753092
Solenoid current (A): NaN
Solenoid shim current (A): NaN
Lens params:
0  685
1  300
2  125
3      -0.002
4       -0.01
5       0.012
6         0.8
7         2.1
8         2.8
9  3000
10  1450
11         0.85
12   0
==========
Data:
z(nm),I(A)
200000,5.1972e-11,
100000,5.3282e-11,
0,5.3961e-11,
-100000,5.2923e-11,
-200000,5.1963e-11,
-300000,5.0838e-11,
-400000,5.0727e-11,
-500000,5.1479e-11,
-600000,6.0217e-11,
-700000,7.5269e-11,
-800000,1.1045e-10,
-900000,1.5189e-10,
-1000000,1.522e-10,
-1100000,1.2457e-10,
-1200000,8.9582e-11,
-1300000,7.063e-11,
-1400000,5.8696e-11,
-1500000,5.3559e-11,
-1600000,5.2616e-11,
-1700000,4.9958e-11,
-1800000,4.9445e-11,
-1900000,4.8002e-11,
-2000000,4.6974e-11,
-2100000,4.7021e-11,
-2200000,4.9331e-11,
-2300000,5.6286e-11,
-2400000,6.4206e-11,
-2500000,7.0404e-11,
-2600000,7.1953e-11,
-2700000,6.5691e-11,
-2800000,5.6228e-11,
-2900000,4.6197e-11,
-3000000,4.0177e-11,
-3100000,3.9152e-11,
-3200000,3.6892e-11,
-3300000,3.7356e-11,
-3400000,3.7268e-11,
-3500000,3.6133e-11,
-3600000,3.5023e-11,
-3700000,3.4002e-11,
-3800000,3.3177e-11,
-3900000,3.1952e-11,
-4000000,3.2434e-11,
-4100000,3.2006e-11,
-4200000,3.0745e-11,
-4300000,3.0968e-11,
-4400000,3.2178e-11,
-4500000,3.1682e-11,
-4600000,3.0935e-11,
-4700000,3.0299e-11,
-4800000,2.9773e-11,
-4900000,2.8045e-11,
-5000000,2.7252e-11,
-4950000,2.6424e-11,
-4850000,2.8371e-11,
-4750000,3.0644e-11,
-4650000,3.0916e-11,
-4550000,3.135e-11,
-4450000,3.2003e-11,
-4350000,3.1745e-11,
-4250000,3.1503e-11,
-4150000,3.1482e-11,
-4050000,3.2088e-11,
-3950000,3.2896e-11,
-3850000,3.2917e-11,
-3750000,3.3379e-11,
-3650000,3.41e-11,
-3550000,3.4729e-11,
-3450000,3.5464e-11,
-3350000,3.6787e-11,
-3250000,3.7775e-11,
-3150000,3.7339e-11,
-3050000,3.8501e-11,
-2950000,4.2682e-11,
-2850000,4.9266e-11,
-2750000,6.0063e-11,
-2650000,6.9848e-11,
-2550000,7.2628e-11,
-2450000,6.9677e-11,
-2350000,6.1326e-11,
-2250000,5.3696e-11,
-2150000,4.7642e-11,
-2050000,4.6509e-11,
-1950000,4.7477e-11,
-1850000,4.8017e-11,
-1750000,4.9911e-11,
-1650000,4.9907e-11,
-1550000,5.2866e-11,
-1450000,5.4981e-11,
-1350000,6.318e-11,
-1250000,7.5304e-11,
-1150000,1.0133e-10,
-1050000,1.4206e-10,
-950000,1.5645e-10,
-850000,1.3926e-10,
-750000,9.2921e-11,
-650000,6.7658e-11,
-550000,5.7848e-11,
-450000,5.1877e-11,
-350000,4.9259e-11,
-250000,4.9456e-11,
-150000,5.2217e-11,
-50000,5.3566e-11,
50000,5.4328e-11,
150000,5.2575e-11,
