General parameters:
Start time: 2023              8             29              4             31      17.974385
Finish time: 2023              8             29              4             38      21.314425
Dwell time (ms): 3000.000000
Source chamber pressure: 2.00e+3
Differential chamber pressure: 6.05e-07
Sample chamber pressure: 3.61e-08
Example position (nm): -3352468.806022,331020.214456,-1000000.000000
Rotation angle (udeg): 97500110.000000
==========
Instrument status: 
0:Data Directory:/icon/data/2023_08_MoS2_5um_hbn_sub/
1:Sample:MoS2
2:Comments:no
3:PinholePlate:#C13
4:z_Zero:4200
5:Operator:djw77/nav31/kw570
==========
zscan inputs: 
z_sep:50000
z_range:200000 -6000000
data_path:/icon/data/2023_08_MoS2_5um_hbn_sub/
example_pos:-3352468.806      331020.21446          -1000000
N_dwell:200
sampling_period:15
make_plots:1
m1:0.98976
m2:-0.0073571
==========
Detector params:
Sampling period (ms): 15.000000
N dwell: 200.000000
Filament current (A): 1.540000
Filament emission (mA): 1.925460
Solenoid current (A): NaN
Solenoid shim current (A): NaN
Lens params:
0  685
1  300
2  125
3      -0.002
4       -0.01
5       0.012
6         0.8
7         2.1
8         2.8
9  3000
10  1450
11         0.85
12   0
==========
Data:
z(nm),I(A)
200000,7.1381e-11,
100000,7.4633e-11,
0,7.5191e-11,
-100000,7.5122e-11,
-200000,7.3033e-11,
-300000,7.1707e-11,
-400000,7.1353e-11,
-500000,7.5022e-11,
-600000,8.7734e-11,
-700000,1.1009e-10,
-800000,1.5303e-10,
-900000,1.9865e-10,
-1000000,2.0228e-10,
-1100000,1.6835e-10,
-1200000,1.2603e-10,
-1300000,1.0137e-10,
-1400000,8.6347e-11,
-1500000,7.9794e-11,
-1600000,7.6735e-11,
-1700000,7.5252e-11,
-1800000,7.3482e-11,
-1900000,6.9721e-11,
-2000000,6.696e-11,
-2100000,6.5644e-11,
-2200000,6.9195e-11,
-2300000,7.3674e-11,
-2400000,8.4208e-11,
-2500000,9.3953e-11,
-2600000,9.4543e-11,
-2700000,8.9631e-11,
-2800000,7.6502e-11,
-2900000,6.5416e-11,
-3000000,6.0076e-11,
-3100000,5.6952e-11,
-3200000,5.6535e-11,
-3300000,5.5906e-11,
-3400000,5.5063e-11,
-3500000,5.3711e-11,
-3600000,5.1716e-11,
-3700000,5.1207e-11,
-3800000,4.8612e-11,
-3900000,4.6573e-11,
-4000000,4.5491e-11,
-4100000,4.4415e-11,
-4200000,4.4388e-11,
-4300000,4.424e-11,
-4400000,4.5073e-11,
-4500000,4.409e-11,
-4600000,4.2766e-11,
-4700000,4.3009e-11,
-4800000,4.1459e-11,
-4900000,4.1423e-11,
-5000000,3.9441e-11,
-5100000,3.8418e-11,
-5200000,3.8156e-11,
-5300000,3.6992e-11,
-5400000,3.7787e-11,
-5500000,3.7168e-11,
-5600000,3.703e-11,
-5700000,3.8181e-11,
-5800000,3.6519e-11,
-5900000,3.4319e-11,
-6000000,3.3976e-11,
-5950000,3.3853e-11,
-5850000,3.3205e-11,
-5750000,3.6271e-11,
-5650000,3.6807e-11,
-5550000,3.5491e-11,
-5450000,3.9049e-11,
-5350000,3.7753e-11,
-5250000,3.6739e-11,
-5150000,3.6913e-11,
-5050000,3.7506e-11,
-4950000,4.011e-11,
-4850000,4.1338e-11,
-4750000,4.2119e-11,
-4650000,4.3156e-11,
-4550000,4.4178e-11,
-4450000,4.3617e-11,
-4350000,4.424e-11,
-4250000,4.4987e-11,
-4150000,4.5065e-11,
-4050000,4.4027e-11,
-3950000,4.6143e-11,
-3850000,4.7266e-11,
-3750000,4.9463e-11,
-3650000,5.1674e-11,
-3550000,5.2534e-11,
-3450000,5.5108e-11,
-3350000,5.5438e-11,
-3250000,5.5942e-11,
-3150000,5.6151e-11,
-3050000,5.7179e-11,
-2950000,6.2754e-11,
-2850000,7.0286e-11,
-2750000,8.1989e-11,
-2650000,9.3104e-11,
-2550000,9.6327e-11,
-2450000,9.2681e-11,
-2350000,8.2763e-11,
-2250000,7.237e-11,
-2150000,6.8465e-11,
-2050000,6.5408e-11,
-1950000,6.6181e-11,
-1850000,7.1638e-11,
-1750000,7.3133e-11,
-1650000,7.5902e-11,
-1550000,7.7312e-11,
-1450000,8.1559e-11,
-1350000,9.1697e-11,
-1250000,1.1032e-10,
-1150000,1.4024e-10,
-1050000,1.897e-10,
-950000,2.046e-10,
-850000,1.8056e-10,
-750000,1.3442e-10,
-650000,1.0236e-10,
-550000,8.2369e-11,
-450000,7.3849e-11,
-350000,7.2189e-11,
-250000,7.2687e-11,
-150000,7.5183e-11,
-50000,7.6339e-11,
50000,7.4891e-11,
150000,7.3231e-11,
