General parameters:
Start time: 2023              8             22             13             48      38.991101
Finish time: 2023              8             22             13             54      33.375572
Dwell time (ms): 3000.000000
Source chamber pressure: 2.00e+3
Differential chamber pressure: 7.98e-07
Sample chamber pressure: 3.78e-08
Example position (nm): -3047556.346705,210651.584717,-1000000.000000
Rotation angle (udeg): 117499900.000000
==========
Instrument status: 
0:Data Directory:/icon/data/2023_08_MoS2_5um_hbn_sub/
1:Sample:MoS2
2:Comments:no
3:PinholePlate:#C13
4:z_Zero:4200
5:Operator:djw77/nav31/kw570
==========
zscan inputs: 
z_sep:50000
z_range:200000 -5000000
data_path:/icon/data/2023_08_MoS2_5um_hbn_sub/
example_pos:-3047556.3467      210651.58472          -1000000
N_dwell:200
sampling_period:15
make_plots:0
m1:0.98976
m2:-0.0073571
==========
Detector params:
Sampling period (ms): 15.000000
N dwell: 200.000000
Filament current (A): 1.540000
Filament emission (mA): 1.735992
Solenoid current (A): NaN
Solenoid shim current (A): NaN
Lens params:
0  685
1  300
2  125
3      -0.002
4       -0.01
5       0.012
6         0.8
7         2.1
8         2.8
9  3000
10  1450
11         0.85
12   0
==========
Data:
z(nm),I(A)
200000,4.5918e-11,
100000,4.627e-11,
0,4.6542e-11,
-100000,4.5961e-11,
-200000,4.6233e-11,
-300000,4.6633e-11,
-400000,4.6261e-11,
-500000,4.689e-11,
-600000,4.7475e-11,
-700000,4.7339e-11,
-800000,4.7016e-11,
-900000,4.838e-11,
-1000000,4.795e-11,
-1100000,4.8346e-11,
-1200000,4.7948e-11,
-1300000,4.8265e-11,
-1400000,4.8648e-11,
-1500000,4.9023e-11,
-1600000,4.9517e-11,
-1700000,4.8404e-11,
-1800000,4.8534e-11,
-1900000,4.9143e-11,
-2000000,4.8509e-11,
-2100000,4.7137e-11,
-2200000,4.7494e-11,
-2300000,4.7291e-11,
-2400000,4.663e-11,
-2500000,4.7429e-11,
-2600000,4.6247e-11,
-2700000,4.5484e-11,
-2800000,4.4382e-11,
-2900000,4.3336e-11,
-3000000,4.4067e-11,
-3100000,4.2397e-11,
-3200000,4.1805e-11,
-3300000,4.1258e-11,
-3400000,4.069e-11,
-3500000,3.9947e-11,
-3600000,3.9806e-11,
-3700000,3.845e-11,
-3800000,3.7727e-11,
-3900000,3.7723e-11,
-4000000,3.6166e-11,
-4100000,3.5935e-11,
-4200000,3.5227e-11,
-4300000,3.4989e-11,
-4400000,3.4195e-11,
-4500000,3.4029e-11,
-4600000,3.2357e-11,
-4700000,3.2098e-11,
-4800000,3.2117e-11,
-4900000,3.2037e-11,
-5000000,3.1317e-11,
-4950000,3.0977e-11,
-4850000,3.1749e-11,
-4750000,3.2461e-11,
-4650000,3.2381e-11,
-4550000,3.2878e-11,
-4450000,3.3127e-11,
-4350000,3.4553e-11,
-4250000,3.5342e-11,
-4150000,3.504e-11,
-4050000,3.6071e-11,
-3950000,3.7771e-11,
-3850000,3.7723e-11,
-3750000,3.8201e-11,
-3650000,3.8467e-11,
-3550000,4.0035e-11,
-3450000,4.0569e-11,
-3350000,4.0715e-11,
-3250000,4.2146e-11,
-3150000,4.2583e-11,
-3050000,4.3125e-11,
-2950000,4.297e-11,
-2850000,4.5147e-11,
-2750000,4.5497e-11,
-2650000,4.6146e-11,
-2550000,4.5919e-11,
-2450000,4.6733e-11,
-2350000,4.7089e-11,
-2250000,4.7989e-11,
-2150000,4.7741e-11,
-2050000,4.8432e-11,
-1950000,4.8462e-11,
-1850000,4.9516e-11,
-1750000,4.819e-11,
-1650000,4.8367e-11,
-1550000,4.7175e-11,
-1450000,4.8403e-11,
-1350000,4.7706e-11,
-1250000,4.8952e-11,
-1150000,4.7246e-11,
-1050000,4.7624e-11,
-950000,4.7374e-11,
-850000,4.7601e-11,
-750000,4.7679e-11,
-650000,4.7175e-11,
-550000,4.6892e-11,
-450000,4.7016e-11,
-350000,4.71e-11,
-250000,4.6494e-11,
-150000,4.5831e-11,
-50000,4.6773e-11,
50000,4.6156e-11,
150000,4.5361e-11,
