General parameters:
Start time: 2023              8             22              3              4       19.80547
Finish time: 2023              8             22              3             10      15.807658
Dwell time (ms): 3000.000000
Source chamber pressure: 2.00e+3
Differential chamber pressure: 7.98e-07
Sample chamber pressure: 3.79e-08
Example position (nm): -3065198.441583,280714.103144,-1000000.000000
Rotation angle (udeg): 117499810.000000
==========
Instrument status: 
0:Data Directory:/icon/data/2023_08_MoS2_5um_hbn_sub/
1:Sample:MoS2
2:Comments:no
3:PinholePlate:#C13
4:z_Zero:4200
5:Operator:djw77/nav31/kw570
==========
zscan inputs: 
z_sep:50000
z_range:200000 -5000000
data_path:/icon/data/2023_08_MoS2_5um_hbn_sub/
example_pos:-3065198.4416      280714.10314          -1000000
N_dwell:200
sampling_period:15
make_plots:0
m1:0.98976
m2:-0.0073571
==========
Detector params:
Sampling period (ms): 15.000000
N dwell: 200.000000
Filament current (A): 1.540000
Filament emission (mA): 1.753776
Solenoid current (A): NaN
Solenoid shim current (A): NaN
Lens params:
0  685
1  300
2  125
3      -0.002
4       -0.01
5       0.012
6         0.8
7         2.1
8         2.8
9  3000
10  1450
11         0.85
12   0
==========
Data:
z(nm),I(A)
200000,4.3115e-11,
100000,4.3064e-11,
0,4.3413e-11,
-100000,4.2717e-11,
-200000,4.2932e-11,
-300000,4.2837e-11,
-400000,4.391e-11,
-500000,4.4079e-11,
-600000,4.3767e-11,
-700000,4.381e-11,
-800000,4.5616e-11,
-900000,4.4063e-11,
-1000000,4.4417e-11,
-1100000,4.52e-11,
-1200000,4.4249e-11,
-1300000,4.589e-11,
-1400000,4.5401e-11,
-1500000,4.5969e-11,
-1600000,4.6011e-11,
-1700000,4.4668e-11,
-1800000,4.5445e-11,
-1900000,4.4752e-11,
-2000000,4.5154e-11,
-2100000,4.5672e-11,
-2200000,4.5095e-11,
-2300000,4.4137e-11,
-2400000,4.3711e-11,
-2500000,4.3369e-11,
-2600000,4.3321e-11,
-2700000,4.2697e-11,
-2800000,4.2339e-11,
-2900000,4.1705e-11,
-3000000,4.1046e-11,
-3100000,4.0916e-11,
-3200000,3.9645e-11,
-3300000,3.8902e-11,
-3400000,3.7518e-11,
-3500000,3.7409e-11,
-3600000,3.6598e-11,
-3700000,3.6714e-11,
-3800000,3.5567e-11,
-3900000,3.4966e-11,
-4000000,3.3285e-11,
-4100000,3.3559e-11,
-4200000,3.3125e-11,
-4300000,3.285e-11,
-4400000,3.1415e-11,
-4500000,3.2557e-11,
-4600000,3.0539e-11,
-4700000,3.0918e-11,
-4800000,2.9747e-11,
-4900000,2.9913e-11,
-5000000,2.931e-11,
-4950000,2.9161e-11,
-4850000,2.9081e-11,
-4750000,3.0007e-11,
-4650000,3.0212e-11,
-4550000,3.114e-11,
-4450000,3.1901e-11,
-4350000,3.2434e-11,
-4250000,3.3021e-11,
-4150000,3.2249e-11,
-4050000,3.4228e-11,
-3950000,3.3962e-11,
-3850000,3.4517e-11,
-3750000,3.55e-11,
-3650000,3.5889e-11,
-3550000,3.7666e-11,
-3450000,3.8258e-11,
-3350000,3.8604e-11,
-3250000,3.9723e-11,
-3150000,3.9592e-11,
-3050000,4.1433e-11,
-2950000,4.0454e-11,
-2850000,4.239e-11,
-2750000,4.2577e-11,
-2650000,4.2937e-11,
-2550000,4.3869e-11,
-2450000,4.4396e-11,
-2350000,4.4474e-11,
-2250000,4.3916e-11,
-2150000,4.5044e-11,
-2050000,4.4982e-11,
-1950000,4.5789e-11,
-1850000,4.5702e-11,
-1750000,4.6795e-11,
-1650000,4.6347e-11,
-1550000,4.5564e-11,
-1450000,4.546e-11,
-1350000,4.6105e-11,
-1250000,4.4826e-11,
-1150000,4.5443e-11,
-1050000,4.5122e-11,
-950000,4.5304e-11,
-850000,4.4703e-11,
-750000,4.4144e-11,
-650000,4.3788e-11,
-550000,4.3234e-11,
-450000,4.3019e-11,
-350000,4.3708e-11,
-250000,4.3067e-11,
-150000,4.2979e-11,
-50000,4.3243e-11,
50000,4.2235e-11,
150000,4.2749e-11,
