General parameters:
Start time: 2023              8             18             18             50       52.07275
Finish time: 2023              8             18             18             56      49.472931
Dwell time (ms): 3000.000000
Source chamber pressure: 2.00e+3
Differential chamber pressure: 7.95e-07
Sample chamber pressure: 3.84e-08
Example position (nm): -3405648.750197,286242.246378,-1000000.000000
Rotation angle (udeg): 92500050.000000
==========
Instrument status: 
0:Data Directory:/icon/data/2023_08_MoS2_5um_hbn_sub/
1:Sample:MoS2
2:Comments:no
3:PinholePlate:#C13
4:z_Zero:4200
5:Operator:djw77/nav31/kw570
==========
zscan inputs: 
z_sep:50000
z_range:200000 -5000000
data_path:/icon/data/2023_08_MoS2_5um_hbn_sub/
example_pos:-3405648.7502      286242.24638          -1000000
N_dwell:200
sampling_period:15
make_plots:0
m1:0.98976
m2:-0.0073571
==========
Detector params:
Sampling period (ms): 15.000000
N dwell: 200.000000
Filament current (A): 1.540000
Filament emission (mA): 1.665882
Solenoid current (A): NaN
Solenoid shim current (A): NaN
Lens params:
0  685
1  300
2  125
3      -0.002
4       -0.01
5       0.012
6         0.8
7         2.1
8         2.8
9  3000
10  1450
11         0.85
12   0
==========
Data:
z(nm),I(A)
200000,3.8623e-11,
100000,3.9957e-11,
0,3.9924e-11,
-100000,3.889e-11,
-200000,3.9641e-11,
-300000,3.9724e-11,
-400000,3.8678e-11,
-500000,3.9277e-11,
-600000,3.9998e-11,
-700000,4.063e-11,
-800000,3.9561e-11,
-900000,4.1309e-11,
-1000000,4.1201e-11,
-1100000,4.1722e-11,
-1200000,4.2384e-11,
-1300000,4.42e-11,
-1400000,4.3743e-11,
-1500000,4.3113e-11,
-1600000,4.3888e-11,
-1700000,4.2979e-11,
-1800000,4.2064e-11,
-1900000,4.2354e-11,
-2000000,4.1965e-11,
-2100000,4.19e-11,
-2200000,4.1061e-11,
-2300000,4.1383e-11,
-2400000,4.0591e-11,
-2500000,3.9827e-11,
-2600000,4.017e-11,
-2700000,3.903e-11,
-2800000,3.8427e-11,
-2900000,3.8175e-11,
-3000000,3.7653e-11,
-3100000,3.7079e-11,
-3200000,3.6352e-11,
-3300000,3.5873e-11,
-3400000,3.5867e-11,
-3500000,3.47e-11,
-3600000,3.3499e-11,
-3700000,3.291e-11,
-3800000,3.2724e-11,
-3900000,3.1969e-11,
-4000000,3.1865e-11,
-4100000,3.188e-11,
-4200000,3.0718e-11,
-4300000,2.9702e-11,
-4400000,2.9062e-11,
-4500000,2.9414e-11,
-4600000,2.8588e-11,
-4700000,2.771e-11,
-4800000,2.7229e-11,
-4900000,2.5955e-11,
-5000000,2.6178e-11,
-4950000,2.6548e-11,
-4850000,2.6927e-11,
-4750000,2.7585e-11,
-4650000,2.757e-11,
-4550000,2.8126e-11,
-4450000,2.8505e-11,
-4350000,2.9624e-11,
-4250000,2.9655e-11,
-4150000,3.1583e-11,
-4050000,3.1223e-11,
-3950000,3.1848e-11,
-3850000,3.2334e-11,
-3750000,3.2256e-11,
-3650000,3.3745e-11,
-3550000,3.4399e-11,
-3450000,3.4162e-11,
-3350000,3.5168e-11,
-3250000,3.623e-11,
-3150000,3.7961e-11,
-3050000,3.6704e-11,
-2950000,3.9014e-11,
-2850000,3.8033e-11,
-2750000,3.9355e-11,
-2650000,3.8349e-11,
-2550000,3.9843e-11,
-2450000,3.9794e-11,
-2350000,4.0954e-11,
-2250000,4.1218e-11,
-2150000,4.1202e-11,
-2050000,4.1882e-11,
-1950000,4.2786e-11,
-1850000,4.1992e-11,
-1750000,4.1729e-11,
-1650000,4.3725e-11,
-1550000,4.2602e-11,
-1450000,4.2824e-11,
-1350000,4.2643e-11,
-1250000,4.244e-11,
-1150000,4.1537e-11,
-1050000,4.1625e-11,
-950000,4.1543e-11,
-850000,4.1019e-11,
-750000,3.9819e-11,
-650000,4.0606e-11,
-550000,4.0007e-11,
-450000,3.9328e-11,
-350000,3.9325e-11,
-250000,3.9237e-11,
-150000,3.953e-11,
-50000,3.9654e-11,
50000,4.0003e-11,
150000,3.954e-11,
