General parameters:
Start time: 2023              8             22              0             21      22.820895
Finish time: 2023              8             22              0             27      19.332482
Dwell time (ms): 3000.000000
Source chamber pressure: 2.00e+3
Differential chamber pressure: 7.98e-07
Sample chamber pressure: 3.78e-08
Example position (nm): -3978141.089959,36201.125398,-1000000.000000
Rotation angle (udeg): 50000085.000000
==========
Instrument status: 
0:Data Directory:/icon/data/2023_08_MoS2_5um_hbn_sub/
1:Sample:MoS2
2:Comments:no
3:PinholePlate:#C13
4:z_Zero:4200
5:Operator:djw77/nav31/kw570
==========
zscan inputs: 
z_sep:50000
z_range:200000 -5000000
data_path:/icon/data/2023_08_MoS2_5um_hbn_sub/
example_pos:-3978141.09      36201.125398          -1000000
N_dwell:200
sampling_period:15
make_plots:0
m1:0.98976
m2:-0.0073571
==========
Detector params:
Sampling period (ms): 15.000000
N dwell: 200.000000
Filament current (A): 1.540000
Filament emission (mA): 1.747620
Solenoid current (A): NaN
Solenoid shim current (A): NaN
Lens params:
0  685
1  300
2  125
3      -0.002
4       -0.01
5       0.012
6         0.8
7         2.1
8         2.8
9  3000
10  1450
11         0.85
12   0
==========
Data:
z(nm),I(A)
200000,4.027e-11,
100000,3.9866e-11,
0,3.967e-11,
-100000,4.0012e-11,
-200000,4.0417e-11,
-300000,4.0359e-11,
-400000,4.0461e-11,
-500000,4.2888e-11,
-600000,4.1897e-11,
-700000,4.1914e-11,
-800000,4.3795e-11,
-900000,4.3363e-11,
-1000000,4.4614e-11,
-1100000,4.4428e-11,
-1200000,4.5364e-11,
-1300000,4.5508e-11,
-1400000,4.5573e-11,
-1500000,4.5416e-11,
-1600000,4.6491e-11,
-1700000,4.5313e-11,
-1800000,4.5986e-11,
-1900000,4.5449e-11,
-2000000,4.6108e-11,
-2100000,4.5799e-11,
-2200000,4.4912e-11,
-2300000,4.4514e-11,
-2400000,4.38e-11,
-2500000,4.3494e-11,
-2600000,4.437e-11,
-2700000,4.4025e-11,
-2800000,4.2391e-11,
-2900000,4.1553e-11,
-3000000,4.1287e-11,
-3100000,4.1228e-11,
-3200000,4.0331e-11,
-3300000,3.9344e-11,
-3400000,3.8931e-11,
-3500000,3.8e-11,
-3600000,3.7271e-11,
-3700000,3.6772e-11,
-3800000,3.5604e-11,
-3900000,3.5755e-11,
-4000000,3.4947e-11,
-4100000,3.4836e-11,
-4200000,3.2995e-11,
-4300000,3.3812e-11,
-4400000,3.2419e-11,
-4500000,3.171e-11,
-4600000,3.1144e-11,
-4700000,3.1137e-11,
-4800000,3.0221e-11,
-4900000,3.0141e-11,
-5000000,2.9774e-11,
-4950000,2.9489e-11,
-4850000,3.0069e-11,
-4750000,2.9505e-11,
-4650000,3.1109e-11,
-4550000,3.1685e-11,
-4450000,3.2191e-11,
-4350000,3.3114e-11,
-4250000,3.3747e-11,
-4150000,3.3663e-11,
-4050000,3.4167e-11,
-3950000,3.5414e-11,
-3850000,3.6022e-11,
-3750000,3.5896e-11,
-3650000,3.7264e-11,
-3550000,3.8633e-11,
-3450000,3.8756e-11,
-3350000,3.9069e-11,
-3250000,4.0205e-11,
-3150000,4.0277e-11,
-3050000,4.0246e-11,
-2950000,4.1807e-11,
-2850000,4.2036e-11,
-2750000,4.2836e-11,
-2650000,4.3561e-11,
-2550000,4.3401e-11,
-2450000,4.4354e-11,
-2350000,4.4967e-11,
-2250000,4.5432e-11,
-2150000,4.5408e-11,
-2050000,4.5382e-11,
-1950000,4.5232e-11,
-1850000,4.7067e-11,
-1750000,4.6237e-11,
-1650000,4.5434e-11,
-1550000,4.5123e-11,
-1450000,4.6394e-11,
-1350000,4.4466e-11,
-1250000,4.5411e-11,
-1150000,4.4262e-11,
-1050000,4.3792e-11,
-950000,4.4166e-11,
-850000,4.262e-11,
-750000,4.268e-11,
-650000,4.2253e-11,
-550000,4.1119e-11,
-450000,4.0477e-11,
-350000,4.112e-11,
-250000,4.0556e-11,
-150000,3.9271e-11,
-50000,3.9395e-11,
50000,3.9351e-11,
150000,3.9885e-11,
