General parameters:
Start time: 2023              9             21             16             26      37.509155
Finish time: 2023              9             21             16             35      41.083264
Dwell time (ms): 3750.000000
Source chamber pressure: Error-S
Differential chamber pressure: 7.93e-07
Sample chamber pressure: 3.52e-08
Example position (nm): -4602000.000000,253000.000000,-2700000.000000
Rotation angle (udeg): 124999815.000000
==========
Instrument status: 
0:Data Directory:/icon/data/2023_08_MoS2_5um_hbn_sub/
1:Sample:MoS2
2:Comments:no
3:PinholePlate:#C13
4:z_Zero:4200
5:Operator:djw77/nav31/kw570
==========
zscan inputs: 
z_sep:50000
z_range:500000 -6000000
data_path:/icon/data/2023_08_MoS2_5um_hbn_sub/
example_pos:-4602000   253000 -2700000
N_dwell:250
sampling_period:15
make_plots:1
m1:0.98976
m2:-0.0073571
==========
Detector params:
Sampling period (ms): 15.000000
N dwell: 250.000000
Filament current (A): 1.540000
Filament emission (mA): 3.026358
Solenoid current (A): NaN
Solenoid shim current (A): NaN
Lens params:
0  685
1  300
2  125
3      -0.002
4       -0.01
5       0.012
6         0.8
7         2.1
8         2.8
9  3000
10  1450
11         0.85
12   0
==========
Data:
z(nm),I(A)
500000,2.6658e-10,
400000,2.7672e-10,
300000,2.8316e-10,
200000,2.8127e-10,
100000,2.7519e-10,
0,2.6716e-10,
-100000,2.5635e-10,
-200000,2.5328e-10,
-300000,2.4743e-10,
-400000,2.5028e-10,
-500000,2.7631e-10,
-600000,3.3271e-10,
-700000,4.4998e-10,
-800000,5.6538e-10,
-900000,5.4147e-10,
-1000000,4.071e-10,
-1100000,3.0994e-10,
-1200000,2.5975e-10,
-1300000,2.4439e-10,
-1400000,2.566e-10,
-1500000,3.0969e-10,
-1600000,4.0384e-10,
-1700000,4.6475e-10,
-1800000,4.5743e-10,
-1900000,3.929e-10,
-2000000,2.9293e-10,
-2100000,2.4236e-10,
-2200000,2.4112e-10,
-2300000,2.8055e-10,
-2400000,3.76e-10,
-2500000,4.9705e-10,
-2600000,5.9897e-10,
-2700000,6.1905e-10,
-2800000,5.779e-10,
-2900000,4.7562e-10,
-3000000,3.4609e-10,
-3100000,2.6169e-10,
-3200000,2.2855e-10,
-3300000,2.2457e-10,
-3400000,2.394e-10,
-3500000,2.7202e-10,
-3600000,3.1671e-10,
-3700000,3.4885e-10,
-3800000,3.5213e-10,
-3900000,3.2765e-10,
-4000000,2.8955e-10,
-4100000,2.4159e-10,
-4200000,2.0084e-10,
-4300000,1.7226e-10,
-4400000,1.5675e-10,
-4500000,1.4849e-10,
-4600000,1.4449e-10,
-4700000,1.4177e-10,
-4800000,1.4152e-10,
-4900000,1.4239e-10,
-5000000,1.4364e-10,
-5100000,1.4623e-10,
-5200000,1.4723e-10,
-5300000,1.4658e-10,
-5400000,1.4841e-10,
-5500000,1.3668e-10,
-5600000,1.2883e-10,
-5700000,1.2898e-10,
-5800000,1.2558e-10,
-5900000,1.1922e-10,
-6000000,1.1623e-10,
-5950000,1.177e-10,
-5850000,1.2303e-10,
-5750000,1.2752e-10,
-5650000,1.2719e-10,
-5550000,1.2938e-10,
-5450000,1.4213e-10,
-5350000,1.4632e-10,
-5250000,1.4759e-10,
-5150000,1.4719e-10,
-5050000,1.4577e-10,
-4950000,1.4566e-10,
-4850000,1.4204e-10,
-4750000,1.4258e-10,
-4650000,1.4237e-10,
-4550000,1.4504e-10,
-4450000,1.5188e-10,
-4350000,1.6199e-10,
-4250000,1.8419e-10,
-4150000,2.1735e-10,
-4050000,2.6196e-10,
-3950000,3.0798e-10,
-3850000,3.361e-10,
-3750000,3.5198e-10,
-3650000,3.3487e-10,
-3550000,2.9515e-10,
-3450000,2.5897e-10,
-3350000,2.3234e-10,
-3250000,2.2479e-10,
-3150000,2.3848e-10,
-3050000,2.9217e-10,
-2950000,3.9833e-10,
-2850000,5.3725e-10,
-2750000,6.2477e-10,
-2650000,6.385e-10,
-2550000,5.7269e-10,
-2450000,4.5181e-10,
-2350000,3.3146e-10,
-2250000,2.594e-10,
-2150000,2.3897e-10,
-2050000,2.6002e-10,
-1950000,3.3427e-10,
-1850000,4.1654e-10,
-1750000,4.6195e-10,
-1650000,4.4417e-10,
-1550000,3.6211e-10,
-1450000,2.8605e-10,
-1350000,2.5267e-10,
-1250000,2.5421e-10,
-1150000,2.7902e-10,
-1050000,3.4433e-10,
-950000,4.7034e-10,
-850000,5.7116e-10,
-750000,5.4004e-10,
-650000,3.8927e-10,
-550000,3.0849e-10,
-450000,2.6669e-10,
-350000,2.5673e-10,
-250000,2.6204e-10,
-150000,2.5849e-10,
-50000,2.6873e-10,
50000,2.7676e-10,
150000,2.8239e-10,
250000,2.841e-10,
350000,2.8207e-10,
450000,2.7227e-10,
