General parameters:
Start time: 2023              8             22              0             15      21.772526
Finish time: 2023              8             22              0             21      17.620074
Dwell time (ms): 3000.000000
Source chamber pressure: 2.00e+3
Differential chamber pressure: 7.99e-07
Sample chamber pressure: 3.79e-08
Example position (nm): -4001998.647192,7775.243212,-1000000.000000
Rotation angle (udeg): 47499980.000000
==========
Instrument status: 
0:Data Directory:/icon/data/2023_08_MoS2_5um_hbn_sub/
1:Sample:MoS2
2:Comments:no
3:PinholePlate:#C13
4:z_Zero:4200
5:Operator:djw77/nav31/kw570
==========
zscan inputs: 
z_sep:50000
z_range:200000 -5000000
data_path:/icon/data/2023_08_MoS2_5um_hbn_sub/
example_pos:-4001998.6472      7775.2432116          -1000000
N_dwell:200
sampling_period:15
make_plots:0
m1:0.98976
m2:-0.0073571
==========
Detector params:
Sampling period (ms): 15.000000
N dwell: 200.000000
Filament current (A): 1.540000
Filament emission (mA): 1.750014
Solenoid current (A): NaN
Solenoid shim current (A): NaN
Lens params:
0  685
1  300
2  125
3      -0.002
4       -0.01
5       0.012
6         0.8
7         2.1
8         2.8
9  3000
10  1450
11         0.85
12   0
==========
Data:
z(nm),I(A)
200000,3.9508e-11,
100000,3.9122e-11,
0,3.9091e-11,
-100000,3.8696e-11,
-200000,3.8811e-11,
-300000,4.0723e-11,
-400000,4.0292e-11,
-500000,4.1306e-11,
-600000,4.3115e-11,
-700000,4.2593e-11,
-800000,4.281e-11,
-900000,4.2312e-11,
-1000000,4.3124e-11,
-1100000,4.4718e-11,
-1200000,4.3762e-11,
-1300000,4.4652e-11,
-1400000,4.4846e-11,
-1500000,4.5959e-11,
-1600000,4.4633e-11,
-1700000,4.5463e-11,
-1800000,4.5283e-11,
-1900000,4.5743e-11,
-2000000,4.5221e-11,
-2100000,4.5498e-11,
-2200000,4.5636e-11,
-2300000,4.5327e-11,
-2400000,4.4525e-11,
-2500000,4.4438e-11,
-2600000,4.2851e-11,
-2700000,4.3894e-11,
-2800000,4.2249e-11,
-2900000,4.2154e-11,
-3000000,4.1257e-11,
-3100000,4.1552e-11,
-3200000,4.083e-11,
-3300000,3.9746e-11,
-3400000,3.8876e-11,
-3500000,3.784e-11,
-3600000,3.8007e-11,
-3700000,3.6811e-11,
-3800000,3.6632e-11,
-3900000,3.6564e-11,
-4000000,3.4327e-11,
-4100000,3.527e-11,
-4200000,3.3922e-11,
-4300000,3.325e-11,
-4400000,3.1967e-11,
-4500000,3.2265e-11,
-4600000,3.1454e-11,
-4700000,3.0789e-11,
-4800000,3.0524e-11,
-4900000,3.0952e-11,
-5000000,2.9066e-11,
-4950000,3.023e-11,
-4850000,2.9728e-11,
-4750000,3.072e-11,
-4650000,3.0974e-11,
-4550000,3.142e-11,
-4450000,3.1654e-11,
-4350000,3.2755e-11,
-4250000,3.2904e-11,
-4150000,3.4039e-11,
-4050000,3.4534e-11,
-3950000,3.5222e-11,
-3850000,3.6418e-11,
-3750000,3.6886e-11,
-3650000,3.7225e-11,
-3550000,3.8136e-11,
-3450000,3.8641e-11,
-3350000,3.9307e-11,
-3250000,4.1031e-11,
-3150000,4.0201e-11,
-3050000,4.1116e-11,
-2950000,4.13e-11,
-2850000,4.2505e-11,
-2750000,4.2951e-11,
-2650000,4.3697e-11,
-2550000,4.4124e-11,
-2450000,4.4299e-11,
-2350000,4.449e-11,
-2250000,4.6134e-11,
-2150000,4.4846e-11,
-2050000,4.4176e-11,
-1950000,4.5197e-11,
-1850000,4.6564e-11,
-1750000,4.6096e-11,
-1650000,4.5073e-11,
-1550000,4.5726e-11,
-1450000,4.4514e-11,
-1350000,4.4397e-11,
-1250000,4.4994e-11,
-1150000,4.3897e-11,
-1050000,4.4215e-11,
-950000,4.2992e-11,
-850000,4.2865e-11,
-750000,4.3049e-11,
-650000,4.129e-11,
-550000,4.139e-11,
-450000,3.9865e-11,
-350000,3.914e-11,
-250000,4.0565e-11,
-150000,3.9869e-11,
-50000,3.9992e-11,
50000,3.9668e-11,
150000,4.0373e-11,
