General parameters:
Start time: 2023              8             18             14             18      36.591152
Finish time: 2023              8             18             14             24      33.788522
Dwell time (ms): 3000.000000
Source chamber pressure: 2.00e+3
Differential chamber pressure: 7.88e-07
Sample chamber pressure: 3.84e-08
Example position (nm): -3225279.246947,313042.912356,-1000000.000000
Rotation angle (udeg): 105000090.000000
==========
Instrument status: 
0:Data Directory:/icon/data/2023_08_MoS2_5um_hbn_sub/
1:Sample:MoS2
2:Comments:no
3:PinholePlate:#C13
4:z_Zero:4200
5:Operator:djw77/nav31/kw570
==========
zscan inputs: 
z_sep:50000
z_range:200000 -5000000
data_path:/icon/data/2023_08_MoS2_5um_hbn_sub/
example_pos:-3225279.2469      313042.91236          -1000000
N_dwell:200
sampling_period:15
make_plots:1
m1:0.98976
m2:-0.0073571
==========
Detector params:
Sampling period (ms): 15.000000
N dwell: 200.000000
Filament current (A): 1.540000
Filament emission (mA): 1.666566
Solenoid current (A): NaN
Solenoid shim current (A): NaN
Lens params:
0  685
1  300
2  125
3      -0.002
4       -0.01
5       0.012
6         0.8
7         2.1
8         2.8
9  3000
10  1450
11         0.85
12   0
==========
Data:
z(nm),I(A)
200000,4.431e-11,
100000,4.6077e-11,
0,4.6138e-11,
-100000,4.7313e-11,
-200000,4.7705e-11,
-300000,4.7717e-11,
-400000,4.9953e-11,
-500000,5.2019e-11,
-600000,5.5583e-11,
-700000,6.0497e-11,
-800000,6.631e-11,
-900000,7.1656e-11,
-1000000,7.2673e-11,
-1100000,6.8739e-11,
-1200000,6.3892e-11,
-1300000,5.8848e-11,
-1400000,5.667e-11,
-1500000,5.4932e-11,
-1600000,5.4942e-11,
-1700000,5.5035e-11,
-1800000,5.5211e-11,
-1900000,5.2488e-11,
-2000000,4.9088e-11,
-2100000,4.7622e-11,
-2200000,4.6872e-11,
-2300000,4.6298e-11,
-2400000,4.5668e-11,
-2500000,4.7002e-11,
-2600000,4.6352e-11,
-2700000,4.6485e-11,
-2800000,4.5221e-11,
-2900000,4.345e-11,
-3000000,4.2434e-11,
-3100000,4.1456e-11,
-3200000,4.1633e-11,
-3300000,4.3587e-11,
-3400000,4.3651e-11,
-3500000,4.508e-11,
-3600000,4.2979e-11,
-3700000,3.9414e-11,
-3800000,3.7303e-11,
-3900000,3.3762e-11,
-4000000,3.1859e-11,
-4100000,2.9973e-11,
-4200000,2.8785e-11,
-4300000,2.7908e-11,
-4400000,2.7065e-11,
-4500000,2.6193e-11,
-4600000,2.6315e-11,
-4700000,2.5887e-11,
-4800000,2.465e-11,
-4900000,2.4304e-11,
-5000000,2.4003e-11,
-4950000,2.4674e-11,
-4850000,2.5553e-11,
-4750000,2.6017e-11,
-4650000,2.5164e-11,
-4550000,2.6436e-11,
-4450000,2.7193e-11,
-4350000,2.7965e-11,
-4250000,2.7768e-11,
-4150000,2.9813e-11,
-4050000,3.1058e-11,
-3950000,3.2188e-11,
-3850000,3.4558e-11,
-3750000,3.7932e-11,
-3650000,4.026e-11,
-3550000,4.2921e-11,
-3450000,4.3637e-11,
-3350000,4.3336e-11,
-3250000,4.3582e-11,
-3150000,4.2598e-11,
-3050000,4.1536e-11,
-2950000,4.1975e-11,
-2850000,4.3066e-11,
-2750000,4.3833e-11,
-2650000,4.537e-11,
-2550000,4.5823e-11,
-2450000,4.668e-11,
-2350000,4.586e-11,
-2250000,4.5766e-11,
-2150000,4.6396e-11,
-2050000,4.8438e-11,
-1950000,5.0427e-11,
-1850000,5.4008e-11,
-1750000,5.4057e-11,
-1650000,5.6828e-11,
-1550000,5.497e-11,
-1450000,5.51e-11,
-1350000,5.691e-11,
-1250000,5.9381e-11,
-1150000,6.5144e-11,
-1050000,7.0567e-11,
-950000,7.297e-11,
-850000,7.0967e-11,
-750000,6.4343e-11,
-650000,5.8904e-11,
-550000,5.5152e-11,
-450000,5.0559e-11,
-350000,4.8918e-11,
-250000,4.7286e-11,
-150000,4.8483e-11,
-50000,4.7588e-11,
50000,4.6201e-11,
150000,4.5344e-11,
