General parameters:
Start time: 2023              8             21             21              3      24.445009
Finish time: 2023              8             21             21              9      21.332713
Dwell time (ms): 3000.000000
Source chamber pressure: 2.00e+3
Differential chamber pressure: 7.97e-07
Sample chamber pressure: 3.84e-08
Example position (nm): -3811180.769509,182588.415319,-1000000.000000
Rotation angle (udeg): 64999955.000000
==========
Instrument status: 
0:Data Directory:/icon/data/2023_08_MoS2_5um_hbn_sub/
1:Sample:MoS2
2:Comments:no
3:PinholePlate:#C13
4:z_Zero:4200
5:Operator:djw77/nav31/kw570
==========
zscan inputs: 
z_sep:50000
z_range:200000 -5000000
data_path:/icon/data/2023_08_MoS2_5um_hbn_sub/
example_pos:-3811180.7695      182588.41532          -1000000
N_dwell:200
sampling_period:15
make_plots:0
m1:0.98976
m2:-0.0073571
==========
Detector params:
Sampling period (ms): 15.000000
N dwell: 200.000000
Filament current (A): 1.540000
Filament emission (mA): 1.736676
Solenoid current (A): NaN
Solenoid shim current (A): NaN
Lens params:
0  685
1  300
2  125
3      -0.002
4       -0.01
5       0.012
6         0.8
7         2.1
8         2.8
9  3000
10  1450
11         0.85
12   0
==========
Data:
z(nm),I(A)
200000,4.2502e-11,
100000,4.176e-11,
0,4.2221e-11,
-100000,4.1773e-11,
-200000,4.2169e-11,
-300000,4.3034e-11,
-400000,4.4387e-11,
-500000,4.458e-11,
-600000,4.4787e-11,
-700000,4.397e-11,
-800000,4.4808e-11,
-900000,4.6056e-11,
-1000000,4.6537e-11,
-1100000,4.7141e-11,
-1200000,4.7827e-11,
-1300000,4.7497e-11,
-1400000,4.7719e-11,
-1500000,4.8525e-11,
-1600000,4.796e-11,
-1700000,4.8937e-11,
-1800000,4.8561e-11,
-1900000,4.9237e-11,
-2000000,4.7717e-11,
-2100000,4.8062e-11,
-2200000,4.8372e-11,
-2300000,4.8129e-11,
-2400000,4.7795e-11,
-2500000,4.6637e-11,
-2600000,4.6557e-11,
-2700000,4.5583e-11,
-2800000,4.4949e-11,
-2900000,4.471e-11,
-3000000,4.4071e-11,
-3100000,4.3868e-11,
-3200000,4.3082e-11,
-3300000,4.1648e-11,
-3400000,4.1579e-11,
-3500000,4.1033e-11,
-3600000,4.033e-11,
-3700000,3.9235e-11,
-3800000,3.8684e-11,
-3900000,3.7914e-11,
-4000000,3.7684e-11,
-4100000,3.6275e-11,
-4200000,3.5419e-11,
-4300000,3.463e-11,
-4400000,3.4385e-11,
-4500000,3.458e-11,
-4600000,3.3324e-11,
-4700000,3.2193e-11,
-4800000,3.2047e-11,
-4900000,3.1726e-11,
-5000000,3.154e-11,
-4950000,3.1554e-11,
-4850000,3.1755e-11,
-4750000,3.3194e-11,
-4650000,3.3571e-11,
-4550000,3.3826e-11,
-4450000,3.4548e-11,
-4350000,3.4987e-11,
-4250000,3.4836e-11,
-4150000,3.5089e-11,
-4050000,3.7094e-11,
-3950000,3.7028e-11,
-3850000,3.8403e-11,
-3750000,3.7782e-11,
-3650000,3.9995e-11,
-3550000,4.0394e-11,
-3450000,4.1002e-11,
-3350000,4.1362e-11,
-3250000,4.1887e-11,
-3150000,4.2323e-11,
-3050000,4.3492e-11,
-2950000,4.4064e-11,
-2850000,4.5875e-11,
-2750000,4.4507e-11,
-2650000,4.6266e-11,
-2550000,4.72e-11,
-2450000,4.6966e-11,
-2350000,4.6495e-11,
-2250000,4.7579e-11,
-2150000,4.7297e-11,
-2050000,4.8941e-11,
-1950000,4.8195e-11,
-1850000,4.8705e-11,
-1750000,4.9456e-11,
-1650000,4.9599e-11,
-1550000,4.7838e-11,
-1450000,4.7954e-11,
-1350000,4.8729e-11,
-1250000,4.7973e-11,
-1150000,4.7278e-11,
-1050000,4.7233e-11,
-950000,4.7171e-11,
-850000,4.592e-11,
-750000,4.5201e-11,
-650000,4.4311e-11,
-550000,4.5386e-11,
-450000,4.3592e-11,
-350000,4.3091e-11,
-250000,4.3609e-11,
-150000,4.1114e-11,
-50000,4.1435e-11,
50000,4.2069e-11,
150000,4.1915e-11,
