General parameters:
Start time: 2023              8             18             19             51      22.373435
Finish time: 2023              8             18             19             57      20.105476
Dwell time (ms): 3000.000000
Source chamber pressure: 2.00e+3
Differential chamber pressure: 7.94e-07
Sample chamber pressure: 3.84e-08
Example position (nm): -3014045.936319,243963.896241,-1000000.000000
Rotation angle (udeg): 117499860.000000
==========
Instrument status: 
0:Data Directory:/icon/data/2023_08_MoS2_5um_hbn_sub/
1:Sample:MoS2
2:Comments:no
3:PinholePlate:#C13
4:z_Zero:4200
5:Operator:djw77/nav31/kw570
==========
zscan inputs: 
z_sep:50000
z_range:200000 -5000000
data_path:/icon/data/2023_08_MoS2_5um_hbn_sub/
example_pos:-3014045.9363      243963.89624          -1000000
N_dwell:200
sampling_period:15
make_plots:0
m1:0.98976
m2:-0.0073571
==========
Detector params:
Sampling period (ms): 15.000000
N dwell: 200.000000
Filament current (A): 1.540000
Filament emission (mA): 1.669302
Solenoid current (A): NaN
Solenoid shim current (A): NaN
Lens params:
0  685
1  300
2  125
3      -0.002
4       -0.01
5       0.012
6         0.8
7         2.1
8         2.8
9  3000
10  1450
11         0.85
12   0
==========
Data:
z(nm),I(A)
200000,4.0519e-11,
100000,4.0833e-11,
0,4.1469e-11,
-100000,4.1157e-11,
-200000,4.195e-11,
-300000,4.1328e-11,
-400000,4.1429e-11,
-500000,4.0912e-11,
-600000,4.1491e-11,
-700000,4.2115e-11,
-800000,4.1687e-11,
-900000,4.2542e-11,
-1000000,4.2028e-11,
-1100000,4.2754e-11,
-1200000,4.2879e-11,
-1300000,4.286e-11,
-1400000,4.172e-11,
-1500000,4.2922e-11,
-1600000,4.2622e-11,
-1700000,4.2465e-11,
-1800000,4.2852e-11,
-1900000,4.3588e-11,
-2000000,4.3242e-11,
-2100000,4.2565e-11,
-2200000,4.1878e-11,
-2300000,4.1675e-11,
-2400000,4.1722e-11,
-2500000,4.0584e-11,
-2600000,4.0878e-11,
-2700000,3.9366e-11,
-2800000,3.928e-11,
-2900000,3.9085e-11,
-3000000,3.8441e-11,
-3100000,3.7531e-11,
-3200000,3.7026e-11,
-3300000,3.6694e-11,
-3400000,3.6065e-11,
-3500000,3.615e-11,
-3600000,3.4864e-11,
-3700000,3.4446e-11,
-3800000,3.3735e-11,
-3900000,3.3307e-11,
-4000000,3.2374e-11,
-4100000,3.1469e-11,
-4200000,3.0428e-11,
-4300000,3.0278e-11,
-4400000,3.001e-11,
-4500000,2.893e-11,
-4600000,2.8678e-11,
-4700000,2.8165e-11,
-4800000,2.7701e-11,
-4900000,2.6774e-11,
-5000000,2.715e-11,
-4950000,2.7049e-11,
-4850000,2.7238e-11,
-4750000,2.8215e-11,
-4650000,2.8554e-11,
-4550000,2.8262e-11,
-4450000,2.9412e-11,
-4350000,3.0679e-11,
-4250000,3.1549e-11,
-4150000,3.0677e-11,
-4050000,3.1812e-11,
-3950000,3.1899e-11,
-3850000,3.3262e-11,
-3750000,3.3953e-11,
-3650000,3.3572e-11,
-3550000,3.4321e-11,
-3450000,3.5057e-11,
-3350000,3.5991e-11,
-3250000,3.663e-11,
-3150000,3.7182e-11,
-3050000,3.7573e-11,
-2950000,3.7841e-11,
-2850000,3.9339e-11,
-2750000,4.0687e-11,
-2650000,4.0579e-11,
-2550000,4.0326e-11,
-2450000,4.1154e-11,
-2350000,4.1345e-11,
-2250000,4.1761e-11,
-2150000,4.2393e-11,
-2050000,4.2913e-11,
-1950000,4.3788e-11,
-1850000,4.3163e-11,
-1750000,4.3877e-11,
-1650000,4.3906e-11,
-1550000,4.3219e-11,
-1450000,4.3116e-11,
-1350000,4.2551e-11,
-1250000,4.2566e-11,
-1150000,4.2359e-11,
-1050000,4.3144e-11,
-950000,4.1643e-11,
-850000,4.262e-11,
-750000,4.1905e-11,
-650000,4.2202e-11,
-550000,4.2194e-11,
-450000,4.1304e-11,
-350000,4.0781e-11,
-250000,4.0971e-11,
-150000,4.1781e-11,
-50000,4.0432e-11,
50000,4.0882e-11,
150000,4.0775e-11,
