General parameters:
Start time: 2023              8             19             16             52       10.88814
Finish time: 2023              8             19             16             58       8.307714
Dwell time (ms): 3000.000000
Source chamber pressure: 2.00e+3
Differential chamber pressure: 7.98e-07
Sample chamber pressure: 3.79e-08
Example position (nm): -2997504.961140,242443.440543,-1000000.000000
Rotation angle (udeg): 119999960.000000
==========
Instrument status: 
0:Data Directory:/icon/data/2023_08_MoS2_5um_hbn_sub/
1:Sample:MoS2
2:Comments:no
3:PinholePlate:#C13
4:z_Zero:4200
5:Operator:djw77/nav31/kw570
==========
zscan inputs: 
z_sep:50000
z_range:200000 -5000000
data_path:/icon/data/2023_08_MoS2_5um_hbn_sub/
example_pos:-2997504.9611      242443.44054          -1000000
N_dwell:200
sampling_period:15
make_plots:0
m1:0.98976
m2:-0.0073571
==========
Detector params:
Sampling period (ms): 15.000000
N dwell: 200.000000
Filament current (A): 1.540000
Filament emission (mA): 1.693584
Solenoid current (A): NaN
Solenoid shim current (A): NaN
Lens params:
0  685
1  300
2  125
3      -0.002
4       -0.01
5       0.012
6         0.8
7         2.1
8         2.8
9  3000
10  1450
11         0.85
12   0
==========
Data:
z(nm),I(A)
200000,4.6477e-11,
100000,4.7291e-11,
0,4.7492e-11,
-100000,4.5781e-11,
-200000,4.6633e-11,
-300000,4.6608e-11,
-400000,4.7926e-11,
-500000,4.7251e-11,
-600000,5.0171e-11,
-700000,5.2125e-11,
-800000,4.7816e-11,
-900000,4.6319e-11,
-1000000,4.6771e-11,
-1100000,4.7394e-11,
-1200000,4.8617e-11,
-1300000,4.9228e-11,
-1400000,5.0142e-11,
-1500000,4.7578e-11,
-1600000,5.0522e-11,
-1700000,5.3313e-11,
-1800000,5.6792e-11,
-1900000,5.5359e-11,
-2000000,5.1246e-11,
-2100000,4.6941e-11,
-2200000,4.6469e-11,
-2300000,4.6445e-11,
-2400000,4.5955e-11,
-2500000,4.4287e-11,
-2600000,4.4604e-11,
-2700000,4.3805e-11,
-2800000,4.4258e-11,
-2900000,4.2799e-11,
-3000000,4.3033e-11,
-3100000,4.1607e-11,
-3200000,4.0821e-11,
-3300000,4.0806e-11,
-3400000,3.9508e-11,
-3500000,3.8365e-11,
-3600000,3.8528e-11,
-3700000,3.8657e-11,
-3800000,3.7195e-11,
-3900000,3.5973e-11,
-4000000,3.4887e-11,
-4100000,3.4034e-11,
-4200000,3.4399e-11,
-4300000,3.3483e-11,
-4400000,3.266e-11,
-4500000,3.17e-11,
-4600000,3.2017e-11,
-4700000,3.1523e-11,
-4800000,3.001e-11,
-4900000,3.0324e-11,
-5000000,2.9346e-11,
-4950000,2.9903e-11,
-4850000,3.0386e-11,
-4750000,3.0889e-11,
-4650000,3.0884e-11,
-4550000,3.1122e-11,
-4450000,3.233e-11,
-4350000,3.2832e-11,
-4250000,3.3752e-11,
-4150000,3.4386e-11,
-4050000,3.5091e-11,
-3950000,3.5674e-11,
-3850000,3.6043e-11,
-3750000,3.6922e-11,
-3650000,3.8365e-11,
-3550000,3.9253e-11,
-3450000,3.9705e-11,
-3350000,3.9502e-11,
-3250000,4.0518e-11,
-3150000,4.0748e-11,
-3050000,4.2361e-11,
-2950000,4.337e-11,
-2850000,4.3799e-11,
-2750000,4.5442e-11,
-2650000,4.5578e-11,
-2550000,4.6125e-11,
-2450000,4.5783e-11,
-2350000,4.554e-11,
-2250000,4.5433e-11,
-2150000,4.7239e-11,
-2050000,4.9038e-11,
-1950000,5.1923e-11,
-1850000,5.5271e-11,
-1750000,5.342e-11,
-1650000,4.9883e-11,
-1550000,4.8033e-11,
-1450000,4.7142e-11,
-1350000,4.7052e-11,
-1250000,4.8625e-11,
-1150000,4.7911e-11,
-1050000,4.7838e-11,
-950000,4.6963e-11,
-850000,4.7882e-11,
-750000,4.9182e-11,
-650000,5.3605e-11,
-550000,5.0305e-11,
-450000,4.7414e-11,
-350000,4.7267e-11,
-250000,4.7061e-11,
-150000,4.6552e-11,
-50000,4.6584e-11,
50000,4.7707e-11,
150000,4.7643e-11,
