General parameters:
Start time: 2023              9             21             13             14      47.582034
Finish time: 2023              9             21             13             23       50.15067
Dwell time (ms): 3750.000000
Source chamber pressure: Error-S
Differential chamber pressure: 7.98e-07
Sample chamber pressure: 3.57e-08
Example position (nm): -4597000.000000,253000.000000,-2700000.000000
Rotation angle (udeg): 125000240.000000
==========
Instrument status: 
0:Data Directory:/icon/data/2023_08_MoS2_5um_hbn_sub/
1:Sample:MoS2
2:Comments:no
3:PinholePlate:#C13
4:z_Zero:4200
5:Operator:djw77/nav31/kw570
==========
zscan inputs: 
z_sep:50000
z_range:500000 -6000000
data_path:/icon/data/2023_08_MoS2_5um_hbn_sub/
example_pos:-4597000   253000 -2700000
N_dwell:250
sampling_period:15
make_plots:1
m1:0.98976
m2:-0.0073571
==========
Detector params:
Sampling period (ms): 15.000000
N dwell: 250.000000
Filament current (A): 1.540000
Filament emission (mA): 3.037644
Solenoid current (A): NaN
Solenoid shim current (A): NaN
Lens params:
0  685
1  300
2  125
3      -0.002
4       -0.01
5       0.012
6         0.8
7         2.1
8         2.8
9  3000
10  1450
11         0.85
12   0
==========
Data:
z(nm),I(A)
500000,2.631e-10,
400000,2.731e-10,
300000,2.8181e-10,
200000,2.8177e-10,
100000,2.8023e-10,
0,2.721e-10,
-100000,2.6335e-10,
-200000,2.5899e-10,
-300000,2.5799e-10,
-400000,2.5753e-10,
-500000,2.8107e-10,
-600000,3.3166e-10,
-700000,4.3511e-10,
-800000,5.5226e-10,
-900000,5.4076e-10,
-1000000,4.1807e-10,
-1100000,3.2058e-10,
-1200000,2.6551e-10,
-1300000,2.5247e-10,
-1400000,2.6273e-10,
-1500000,3.1115e-10,
-1600000,3.9191e-10,
-1700000,4.5113e-10,
-1800000,4.5118e-10,
-1900000,3.9334e-10,
-2000000,3.0157e-10,
-2100000,2.517e-10,
-2200000,2.4767e-10,
-2300000,2.8276e-10,
-2400000,3.6929e-10,
-2500000,4.8993e-10,
-2600000,5.8817e-10,
-2700000,6.218e-10,
-2800000,5.7549e-10,
-2900000,4.7721e-10,
-3000000,3.5691e-10,
-3100000,2.7335e-10,
-3200000,2.3311e-10,
-3300000,2.2709e-10,
-3400000,2.4254e-10,
-3500000,2.7172e-10,
-3600000,3.0896e-10,
-3700000,3.4083e-10,
-3800000,3.4469e-10,
-3900000,3.2517e-10,
-4000000,2.9001e-10,
-4100000,2.4614e-10,
-4200000,2.0536e-10,
-4300000,1.772e-10,
-4400000,1.5882e-10,
-4500000,1.4924e-10,
-4600000,1.474e-10,
-4700000,1.432e-10,
-4800000,1.4269e-10,
-4900000,1.4516e-10,
-5000000,1.4596e-10,
-5100000,1.4645e-10,
-5200000,1.4722e-10,
-5300000,1.4722e-10,
-5400000,1.4652e-10,
-5500000,1.3577e-10,
-5600000,1.2907e-10,
-5700000,1.2872e-10,
-5800000,1.2401e-10,
-5900000,1.2034e-10,
-6000000,1.1769e-10,
-5950000,1.1783e-10,
-5850000,1.2219e-10,
-5750000,1.2893e-10,
-5650000,1.3027e-10,
-5550000,1.2778e-10,
-5450000,1.3987e-10,
-5350000,1.4642e-10,
-5250000,1.4668e-10,
-5150000,1.4682e-10,
-5050000,1.4653e-10,
-4950000,1.4357e-10,
-4850000,1.4368e-10,
-4750000,1.4306e-10,
-4650000,1.4466e-10,
-4550000,1.4781e-10,
-4450000,1.532e-10,
-4350000,1.6513e-10,
-4250000,1.8845e-10,
-4150000,2.2218e-10,
-4050000,2.6525e-10,
-3950000,3.0936e-10,
-3850000,3.3342e-10,
-3750000,3.4583e-10,
-3650000,3.2554e-10,
-3550000,2.923e-10,
-3450000,2.5764e-10,
-3350000,2.3405e-10,
-3250000,2.2784e-10,
-3150000,2.4528e-10,
-3050000,3.0242e-10,
-2950000,4.0539e-10,
-2850000,5.3346e-10,
-2750000,6.1532e-10,
-2650000,6.191e-10,
-2550000,5.5685e-10,
-2450000,4.4007e-10,
-2350000,3.2741e-10,
-2250000,2.636e-10,
-2150000,2.4662e-10,
-2050000,2.6806e-10,
-1950000,3.3816e-10,
-1850000,4.1357e-10,
-1750000,4.598e-10,
-1650000,4.3304e-10,
-1550000,3.5385e-10,
-1450000,2.8659e-10,
-1350000,2.5492e-10,
-1250000,2.56e-10,
-1150000,2.8291e-10,
-1050000,3.5543e-10,
-950000,4.7016e-10,
-850000,5.5749e-10,
-750000,4.9851e-10,
-650000,3.8141e-10,
-550000,3.0869e-10,
-450000,2.7668e-10,
-350000,2.6656e-10,
-250000,2.743e-10,
-150000,2.6987e-10,
-50000,2.7493e-10,
50000,2.8272e-10,
150000,2.8045e-10,
250000,2.8346e-10,
350000,2.7948e-10,
450000,2.6437e-10,
