General parameters:
Start time: 2023              8             18             14             54      52.518788
Finish time: 2023              8             18             15              0       51.28336
Dwell time (ms): 3000.000000
Source chamber pressure: 2.00e+3
Differential chamber pressure: 7.88e-07
Sample chamber pressure: 3.84e-08
Example position (nm): -2770415.141389,148333.040128,-1000000.000000
Rotation angle (udeg): 134999940.000000
==========
Instrument status: 
0:Data Directory:/icon/data/2023_08_MoS2_5um_hbn_sub/
1:Sample:MoS2
2:Comments:no
3:PinholePlate:#C13
4:z_Zero:4200
5:Operator:djw77/nav31/kw570
==========
zscan inputs: 
z_sep:50000
z_range:200000 -5000000
data_path:/icon/data/2023_08_MoS2_5um_hbn_sub/
example_pos:-2770415.1414      148333.04013          -1000000
N_dwell:200
sampling_period:15
make_plots:1
m1:0.98976
m2:-0.0073571
==========
Detector params:
Sampling period (ms): 15.000000
N dwell: 200.000000
Filament current (A): 1.540000
Filament emission (mA): 1.661436
Solenoid current (A): NaN
Solenoid shim current (A): NaN
Lens params:
0  685
1  300
2  125
3      -0.002
4       -0.01
5       0.012
6         0.8
7         2.1
8         2.8
9  3000
10  1450
11         0.85
12   0
==========
Data:
z(nm),I(A)
200000,5.9758e-11,
100000,5.485e-11,
0,5.2623e-11,
-100000,5.0043e-11,
-200000,4.7876e-11,
-300000,4.7124e-11,
-400000,4.6326e-11,
-500000,4.9988e-11,
-600000,5.6802e-11,
-700000,6.9173e-11,
-800000,8.5369e-11,
-900000,8.568e-11,
-1000000,7.126e-11,
-1100000,5.7332e-11,
-1200000,4.9778e-11,
-1300000,4.6107e-11,
-1400000,4.5411e-11,
-1500000,4.6459e-11,
-1600000,4.7157e-11,
-1700000,4.9678e-11,
-1800000,4.8422e-11,
-1900000,4.7458e-11,
-2000000,4.4565e-11,
-2100000,4.3855e-11,
-2200000,4.1882e-11,
-2300000,4.3278e-11,
-2400000,4.4311e-11,
-2500000,4.4255e-11,
-2600000,4.5664e-11,
-2700000,4.5892e-11,
-2800000,4.4654e-11,
-2900000,4.3064e-11,
-3000000,4.1268e-11,
-3100000,4.0968e-11,
-3200000,3.9492e-11,
-3300000,3.9977e-11,
-3400000,3.7518e-11,
-3500000,3.6304e-11,
-3600000,3.4907e-11,
-3700000,3.3026e-11,
-3800000,3.2716e-11,
-3900000,3.1377e-11,
-4000000,3.1554e-11,
-4100000,3.0558e-11,
-4200000,2.9553e-11,
-4300000,2.8891e-11,
-4400000,2.8005e-11,
-4500000,2.7712e-11,
-4600000,2.6602e-11,
-4700000,2.5204e-11,
-4800000,2.4985e-11,
-4900000,2.4904e-11,
-5000000,2.3836e-11,
-4950000,2.3849e-11,
-4850000,2.4837e-11,
-4750000,2.5286e-11,
-4650000,2.6311e-11,
-4550000,2.6955e-11,
-4450000,2.7695e-11,
-4350000,2.8587e-11,
-4250000,2.9162e-11,
-4150000,2.9491e-11,
-4050000,2.9804e-11,
-3950000,3.1388e-11,
-3850000,3.1551e-11,
-3750000,3.3226e-11,
-3650000,3.4534e-11,
-3550000,3.5237e-11,
-3450000,3.6876e-11,
-3350000,3.7601e-11,
-3250000,3.9366e-11,
-3150000,4.009e-11,
-3050000,4.1042e-11,
-2950000,4.165e-11,
-2850000,4.3118e-11,
-2750000,4.5557e-11,
-2650000,4.5361e-11,
-2550000,4.5765e-11,
-2450000,4.4548e-11,
-2350000,4.3111e-11,
-2250000,4.2379e-11,
-2150000,4.1331e-11,
-2050000,4.165e-11,
-1950000,4.4858e-11,
-1850000,4.727e-11,
-1750000,5.0159e-11,
-1650000,4.9299e-11,
-1550000,4.6696e-11,
-1450000,4.5782e-11,
-1350000,4.6086e-11,
-1250000,4.6805e-11,
-1150000,5.3396e-11,
-1050000,6.1031e-11,
-950000,7.7573e-11,
-850000,8.8444e-11,
-750000,7.9732e-11,
-650000,6.2325e-11,
-550000,5.3376e-11,
-450000,4.9098e-11,
-350000,4.6562e-11,
-250000,4.6322e-11,
-150000,4.7777e-11,
-50000,4.9737e-11,
50000,5.4193e-11,
150000,5.6381e-11,
