General parameters:
Start time: 2023              8             18             19             33      13.487188
Finish time: 2023              8             18             19             39      12.322237
Dwell time (ms): 3000.000000
Source chamber pressure: 2.00e+3
Differential chamber pressure: 7.94e-07
Sample chamber pressure: 3.84e-08
Example position (nm): -3129058.717522,274592.051386,-1000000.000000
Rotation angle (udeg): 109999905.000000
==========
Instrument status: 
0:Data Directory:/icon/data/2023_08_MoS2_5um_hbn_sub/
1:Sample:MoS2
2:Comments:no
3:PinholePlate:#C13
4:z_Zero:4200
5:Operator:djw77/nav31/kw570
==========
zscan inputs: 
z_sep:50000
z_range:200000 -5000000
data_path:/icon/data/2023_08_MoS2_5um_hbn_sub/
example_pos:-3129058.7175      274592.05139          -1000000
N_dwell:200
sampling_period:15
make_plots:0
m1:0.98976
m2:-0.0073571
==========
Detector params:
Sampling period (ms): 15.000000
N dwell: 200.000000
Filament current (A): 1.540000
Filament emission (mA): 1.667592
Solenoid current (A): NaN
Solenoid shim current (A): NaN
Lens params:
0  685
1  300
2  125
3      -0.002
4       -0.01
5       0.012
6         0.8
7         2.1
8         2.8
9  3000
10  1450
11         0.85
12   0
==========
Data:
z(nm),I(A)
200000,3.9025e-11,
100000,4.0219e-11,
0,4.0507e-11,
-100000,4.0577e-11,
-200000,4.022e-11,
-300000,4.0351e-11,
-400000,4.1931e-11,
-500000,4.1645e-11,
-600000,4.287e-11,
-700000,4.3658e-11,
-800000,4.4318e-11,
-900000,4.308e-11,
-1000000,4.5979e-11,
-1100000,4.4618e-11,
-1200000,4.5089e-11,
-1300000,4.3849e-11,
-1400000,4.4147e-11,
-1500000,4.4882e-11,
-1600000,4.768e-11,
-1700000,4.7585e-11,
-1800000,4.9242e-11,
-1900000,4.6772e-11,
-2000000,4.4303e-11,
-2100000,4.3526e-11,
-2200000,4.1734e-11,
-2300000,4.1683e-11,
-2400000,4.1291e-11,
-2500000,4.0798e-11,
-2600000,4.0016e-11,
-2700000,3.99e-11,
-2800000,3.9978e-11,
-2900000,3.9119e-11,
-3000000,3.8938e-11,
-3100000,3.8815e-11,
-3200000,3.8282e-11,
-3300000,3.7615e-11,
-3400000,3.6285e-11,
-3500000,3.7995e-11,
-3600000,3.8128e-11,
-3700000,3.6512e-11,
-3800000,3.4524e-11,
-3900000,3.4697e-11,
-4000000,3.1725e-11,
-4100000,3.2308e-11,
-4200000,3.0877e-11,
-4300000,3.0646e-11,
-4400000,2.9201e-11,
-4500000,2.9093e-11,
-4600000,2.8733e-11,
-4700000,2.7882e-11,
-4800000,2.7138e-11,
-4900000,2.7495e-11,
-5000000,2.6457e-11,
-4950000,2.719e-11,
-4850000,2.7137e-11,
-4750000,2.7731e-11,
-4650000,2.875e-11,
-4550000,2.8377e-11,
-4450000,2.9153e-11,
-4350000,3.0182e-11,
-4250000,3.0612e-11,
-4150000,3.0254e-11,
-4050000,3.0633e-11,
-3950000,3.1898e-11,
-3850000,3.3072e-11,
-3750000,3.4751e-11,
-3650000,3.6293e-11,
-3550000,3.7408e-11,
-3450000,3.7152e-11,
-3350000,3.6675e-11,
-3250000,3.7874e-11,
-3150000,3.7881e-11,
-3050000,3.8965e-11,
-2950000,3.9238e-11,
-2850000,4.0003e-11,
-2750000,4.0994e-11,
-2650000,4.0184e-11,
-2550000,4.161e-11,
-2450000,4.143e-11,
-2350000,4.1559e-11,
-2250000,4.2338e-11,
-2150000,4.1778e-11,
-2050000,4.3772e-11,
-1950000,4.5916e-11,
-1850000,4.8245e-11,
-1750000,4.801e-11,
-1650000,4.5826e-11,
-1550000,4.4513e-11,
-1450000,4.4133e-11,
-1350000,4.3512e-11,
-1250000,4.4685e-11,
-1150000,4.3824e-11,
-1050000,4.4857e-11,
-950000,4.3627e-11,
-850000,4.3125e-11,
-750000,4.3891e-11,
-650000,4.4802e-11,
-550000,4.3541e-11,
-450000,4.1902e-11,
-350000,4.041e-11,
-250000,4.0699e-11,
-150000,4.0222e-11,
-50000,4.0436e-11,
50000,4.0849e-11,
150000,4.034e-11,
