General parameters:
Start time: 2023              8             22             13             42      37.323402
Finish time: 2023              8             22             13             48      33.814155
Dwell time (ms): 3000.000000
Source chamber pressure: 2.00e+3
Differential chamber pressure: 7.98e-07
Sample chamber pressure: 3.78e-08
Example position (nm): -3079909.036575,222651.200741,-1000000.000000
Rotation angle (udeg): 114999980.000000
==========
Instrument status: 
0:Data Directory:/icon/data/2023_08_MoS2_5um_hbn_sub/
1:Sample:MoS2
2:Comments:no
3:PinholePlate:#C13
4:z_Zero:4200
5:Operator:djw77/nav31/kw570
==========
zscan inputs: 
z_sep:50000
z_range:200000 -5000000
data_path:/icon/data/2023_08_MoS2_5um_hbn_sub/
example_pos:-3079909.0366      222651.20074          -1000000
N_dwell:200
sampling_period:15
make_plots:0
m1:0.98976
m2:-0.0073571
==========
Detector params:
Sampling period (ms): 15.000000
N dwell: 200.000000
Filament current (A): 1.540000
Filament emission (mA): 1.735308
Solenoid current (A): NaN
Solenoid shim current (A): NaN
Lens params:
0  685
1  300
2  125
3      -0.002
4       -0.01
5       0.012
6         0.8
7         2.1
8         2.8
9  3000
10  1450
11         0.85
12   0
==========
Data:
z(nm),I(A)
200000,4.4985e-11,
100000,4.5598e-11,
0,4.5746e-11,
-100000,4.6842e-11,
-200000,4.6252e-11,
-300000,4.7053e-11,
-400000,4.6243e-11,
-500000,4.6865e-11,
-600000,4.686e-11,
-700000,4.6063e-11,
-800000,4.7037e-11,
-900000,4.7306e-11,
-1000000,4.7785e-11,
-1100000,4.8416e-11,
-1200000,4.8437e-11,
-1300000,4.8792e-11,
-1400000,4.7885e-11,
-1500000,4.9013e-11,
-1600000,4.8967e-11,
-1700000,4.894e-11,
-1800000,4.781e-11,
-1900000,4.8818e-11,
-2000000,4.89e-11,
-2100000,4.7976e-11,
-2200000,4.7451e-11,
-2300000,4.6862e-11,
-2400000,4.718e-11,
-2500000,4.6955e-11,
-2600000,4.6763e-11,
-2700000,4.5042e-11,
-2800000,4.4888e-11,
-2900000,4.4648e-11,
-3000000,4.4715e-11,
-3100000,4.3576e-11,
-3200000,4.261e-11,
-3300000,4.1633e-11,
-3400000,4.1216e-11,
-3500000,4.0075e-11,
-3600000,3.9143e-11,
-3700000,3.8587e-11,
-3800000,3.8453e-11,
-3900000,3.7263e-11,
-4000000,3.6855e-11,
-4100000,3.6109e-11,
-4200000,3.4955e-11,
-4300000,3.498e-11,
-4400000,3.3482e-11,
-4500000,3.3304e-11,
-4600000,3.367e-11,
-4700000,3.1309e-11,
-4800000,3.2196e-11,
-4900000,3.1755e-11,
-5000000,3.048e-11,
-4950000,3.0405e-11,
-4850000,3.1267e-11,
-4750000,3.2131e-11,
-4650000,3.3156e-11,
-4550000,3.2469e-11,
-4450000,3.2912e-11,
-4350000,3.4125e-11,
-4250000,3.4589e-11,
-4150000,3.5857e-11,
-4050000,3.6762e-11,
-3950000,3.8067e-11,
-3850000,3.8121e-11,
-3750000,3.825e-11,
-3650000,3.925e-11,
-3550000,4.0089e-11,
-3450000,4.111e-11,
-3350000,4.0515e-11,
-3250000,4.1395e-11,
-3150000,4.1983e-11,
-3050000,4.2902e-11,
-2950000,4.4072e-11,
-2850000,4.3363e-11,
-2750000,4.4825e-11,
-2650000,4.6017e-11,
-2550000,4.608e-11,
-2450000,4.673e-11,
-2350000,4.8019e-11,
-2250000,4.861e-11,
-2150000,4.8158e-11,
-2050000,4.7525e-11,
-1950000,4.7967e-11,
-1850000,4.9079e-11,
-1750000,4.941e-11,
-1650000,4.9293e-11,
-1550000,4.8355e-11,
-1450000,4.8881e-11,
-1350000,4.78e-11,
-1250000,4.8031e-11,
-1150000,4.8067e-11,
-1050000,4.9012e-11,
-950000,4.9336e-11,
-850000,4.8529e-11,
-750000,4.7118e-11,
-650000,4.6823e-11,
-550000,4.6804e-11,
-450000,4.6226e-11,
-350000,4.5578e-11,
-250000,4.545e-11,
-150000,4.647e-11,
-50000,4.6394e-11,
50000,4.682e-11,
150000,4.5313e-11,
