General parameters:
Start time: 2023              8             22             11             54      36.928072
Finish time: 2023              8             22             12              0      32.273854
Dwell time (ms): 3000.000000
Source chamber pressure: 2.00e+3
Differential chamber pressure: 7.97e-07
Sample chamber pressure: 3.84e-08
Example position (nm): -3684164.256824,186749.947120,-1000000.000000
Rotation angle (udeg): 69999705.000000
==========
Instrument status: 
0:Data Directory:/icon/data/2023_08_MoS2_5um_hbn_sub/
1:Sample:MoS2
2:Comments:no
3:PinholePlate:#C13
4:z_Zero:4200
5:Operator:djw77/nav31/kw570
==========
zscan inputs: 
z_sep:50000
z_range:200000 -5000000
data_path:/icon/data/2023_08_MoS2_5um_hbn_sub/
example_pos:-3684164.2568      186749.94712          -1000000
N_dwell:200
sampling_period:15
make_plots:0
m1:0.98976
m2:-0.0073571
==========
Detector params:
Sampling period (ms): 15.000000
N dwell: 200.000000
Filament current (A): 1.540000
Filament emission (mA): 1.742832
Solenoid current (A): NaN
Solenoid shim current (A): NaN
Lens params:
0  685
1  300
2  125
3      -0.002
4       -0.01
5       0.012
6         0.8
7         2.1
8         2.8
9  3000
10  1450
11         0.85
12   0
==========
Data:
z(nm),I(A)
200000,4.1732e-11,
100000,4.1064e-11,
0,4.0769e-11,
-100000,4.1772e-11,
-200000,4.0847e-11,
-300000,4.2671e-11,
-400000,4.2519e-11,
-500000,4.2851e-11,
-600000,4.3758e-11,
-700000,4.4612e-11,
-800000,4.442e-11,
-900000,4.4523e-11,
-1000000,4.5958e-11,
-1100000,4.6348e-11,
-1200000,4.5752e-11,
-1300000,4.573e-11,
-1400000,4.6396e-11,
-1500000,4.6748e-11,
-1600000,4.6582e-11,
-1700000,4.7654e-11,
-1800000,4.7535e-11,
-1900000,4.7474e-11,
-2000000,4.7216e-11,
-2100000,4.6537e-11,
-2200000,4.7534e-11,
-2300000,4.6144e-11,
-2400000,4.6773e-11,
-2500000,4.6181e-11,
-2600000,4.5305e-11,
-2700000,4.4628e-11,
-2800000,4.4454e-11,
-2900000,4.2289e-11,
-3000000,4.2486e-11,
-3100000,4.271e-11,
-3200000,4.1664e-11,
-3300000,4.1963e-11,
-3400000,3.9946e-11,
-3500000,3.8867e-11,
-3600000,3.8472e-11,
-3700000,3.8073e-11,
-3800000,3.6966e-11,
-3900000,3.6972e-11,
-4000000,3.6025e-11,
-4100000,3.6017e-11,
-4200000,3.481e-11,
-4300000,3.3833e-11,
-4400000,3.3498e-11,
-4500000,3.2796e-11,
-4600000,3.2653e-11,
-4700000,3.2115e-11,
-4800000,3.1017e-11,
-4900000,3.1306e-11,
-5000000,3.0009e-11,
-4950000,3.0522e-11,
-4850000,3.1329e-11,
-4750000,3.1564e-11,
-4650000,3.3131e-11,
-4550000,3.2693e-11,
-4450000,3.3304e-11,
-4350000,3.4157e-11,
-4250000,3.4943e-11,
-4150000,3.5062e-11,
-4050000,3.6585e-11,
-3950000,3.6682e-11,
-3850000,3.7574e-11,
-3750000,3.7046e-11,
-3650000,4.02e-11,
-3550000,3.9889e-11,
-3450000,3.9499e-11,
-3350000,4.0544e-11,
-3250000,4.0719e-11,
-3150000,4.1152e-11,
-3050000,4.2844e-11,
-2950000,4.3254e-11,
-2850000,4.3957e-11,
-2750000,4.463e-11,
-2650000,4.4319e-11,
-2550000,4.5294e-11,
-2450000,4.6068e-11,
-2350000,4.5585e-11,
-2250000,4.6135e-11,
-2150000,4.7453e-11,
-2050000,4.6533e-11,
-1950000,4.7363e-11,
-1850000,4.6804e-11,
-1750000,4.8085e-11,
-1650000,4.7272e-11,
-1550000,4.6352e-11,
-1450000,4.8276e-11,
-1350000,4.6956e-11,
-1250000,4.6948e-11,
-1150000,4.6206e-11,
-1050000,4.6114e-11,
-950000,4.5728e-11,
-850000,4.4668e-11,
-750000,4.4173e-11,
-650000,4.4731e-11,
-550000,4.3477e-11,
-450000,4.2677e-11,
-350000,4.2438e-11,
-250000,4.2042e-11,
-150000,4.1374e-11,
-50000,4.1253e-11,
50000,4.261e-11,
150000,4.1931e-11,
