General parameters:
Start time: 2023              8             22             14             12      38.374692
Finish time: 2023              8             22             14             18      33.197871
Dwell time (ms): 3000.000000
Source chamber pressure: 2.00e+3
Differential chamber pressure: 7.98e-07
Sample chamber pressure: 3.79e-08
Example position (nm): -2924287.010365,148923.376986,-1000000.000000
Rotation angle (udeg): 127499855.000000
==========
Instrument status: 
0:Data Directory:/icon/data/2023_08_MoS2_5um_hbn_sub/
1:Sample:MoS2
2:Comments:no
3:PinholePlate:#C13
4:z_Zero:4200
5:Operator:djw77/nav31/kw570
==========
zscan inputs: 
z_sep:50000
z_range:200000 -5000000
data_path:/icon/data/2023_08_MoS2_5um_hbn_sub/
example_pos:-2924287.0104      148923.37699          -1000000
N_dwell:200
sampling_period:15
make_plots:0
m1:0.98976
m2:-0.0073571
==========
Detector params:
Sampling period (ms): 15.000000
N dwell: 200.000000
Filament current (A): 1.540000
Filament emission (mA): 1.736334
Solenoid current (A): NaN
Solenoid shim current (A): NaN
Lens params:
0  685
1  300
2  125
3      -0.002
4       -0.01
5       0.012
6         0.8
7         2.1
8         2.8
9  3000
10  1450
11         0.85
12   0
==========
Data:
z(nm),I(A)
200000,4.556e-11,
100000,4.6456e-11,
0,4.7022e-11,
-100000,4.7492e-11,
-200000,4.7325e-11,
-300000,4.8129e-11,
-400000,4.8213e-11,
-500000,4.7706e-11,
-600000,4.7676e-11,
-700000,4.8004e-11,
-800000,4.7316e-11,
-900000,4.9066e-11,
-1000000,4.9318e-11,
-1100000,4.9428e-11,
-1200000,4.8544e-11,
-1300000,4.9615e-11,
-1400000,4.9653e-11,
-1500000,5.0108e-11,
-1600000,4.8181e-11,
-1700000,4.9346e-11,
-1800000,4.8708e-11,
-1900000,4.8483e-11,
-2000000,4.9412e-11,
-2100000,4.785e-11,
-2200000,4.8782e-11,
-2300000,4.7956e-11,
-2400000,4.8082e-11,
-2500000,4.6992e-11,
-2600000,4.684e-11,
-2700000,4.5902e-11,
-2800000,4.4999e-11,
-2900000,4.4795e-11,
-3000000,4.3316e-11,
-3100000,4.3204e-11,
-3200000,4.2567e-11,
-3300000,4.3581e-11,
-3400000,4.0797e-11,
-3500000,4.1117e-11,
-3600000,3.9892e-11,
-3700000,3.8474e-11,
-3800000,3.8352e-11,
-3900000,3.8153e-11,
-4000000,3.6621e-11,
-4100000,3.6163e-11,
-4200000,3.6314e-11,
-4300000,3.4689e-11,
-4400000,3.4242e-11,
-4500000,3.3898e-11,
-4600000,3.3341e-11,
-4700000,3.2989e-11,
-4800000,3.1794e-11,
-4900000,3.1674e-11,
-5000000,3.1272e-11,
-4950000,3.1628e-11,
-4850000,3.1126e-11,
-4750000,3.257e-11,
-4650000,3.3244e-11,
-4550000,3.4008e-11,
-4450000,3.4517e-11,
-4350000,3.5336e-11,
-4250000,3.4911e-11,
-4150000,3.5742e-11,
-4050000,3.6448e-11,
-3950000,3.6865e-11,
-3850000,3.9152e-11,
-3750000,3.9328e-11,
-3650000,3.9967e-11,
-3550000,4.0043e-11,
-3450000,4.0572e-11,
-3350000,4.1903e-11,
-3250000,4.2486e-11,
-3150000,4.2119e-11,
-3050000,4.2871e-11,
-2950000,4.4513e-11,
-2850000,4.5756e-11,
-2750000,4.5779e-11,
-2650000,4.692e-11,
-2550000,4.6502e-11,
-2450000,4.6436e-11,
-2350000,4.7758e-11,
-2250000,4.789e-11,
-2150000,4.8091e-11,
-2050000,4.9211e-11,
-1950000,4.9394e-11,
-1850000,5.0149e-11,
-1750000,4.9461e-11,
-1650000,4.9067e-11,
-1550000,4.8919e-11,
-1450000,5.0056e-11,
-1350000,4.9524e-11,
-1250000,4.917e-11,
-1150000,4.8905e-11,
-1050000,4.9182e-11,
-950000,4.8787e-11,
-850000,4.8596e-11,
-750000,4.8784e-11,
-650000,4.7705e-11,
-550000,4.8343e-11,
-450000,4.7533e-11,
-350000,4.7391e-11,
-250000,4.689e-11,
-150000,4.7102e-11,
-50000,4.7174e-11,
50000,4.7187e-11,
150000,4.6548e-11,
