General parameters:
Start time: 2023              8             18             17             26      18.533916
Finish time: 2023              8             18             17             32        15.3949
Dwell time (ms): 3000.000000
Source chamber pressure: 2.00e+3
Differential chamber pressure: 7.94e-07
Sample chamber pressure: 3.88e-08
Example position (nm): -3906192.201989,65078.763683,-1000000.000000
Rotation angle (udeg): 57500140.000000
==========
Instrument status: 
0:Data Directory:/icon/data/2023_08_MoS2_5um_hbn_sub/
1:Sample:MoS2
2:Comments:no
3:PinholePlate:#C13
4:z_Zero:4200
5:Operator:djw77/nav31/kw570
==========
zscan inputs: 
z_sep:50000
z_range:200000 -5000000
data_path:/icon/data/2023_08_MoS2_5um_hbn_sub/
example_pos:-3906192.202      65078.763683          -1000000
N_dwell:200
sampling_period:15
make_plots:0
m1:0.98976
m2:-0.0073571
==========
Detector params:
Sampling period (ms): 15.000000
N dwell: 200.000000
Filament current (A): 1.540000
Filament emission (mA): 1.656990
Solenoid current (A): NaN
Solenoid shim current (A): NaN
Lens params:
0  685
1  300
2  125
3      -0.002
4       -0.01
5       0.012
6         0.8
7         2.1
8         2.8
9  3000
10  1450
11         0.85
12   0
==========
Data:
z(nm),I(A)
200000,5.1063e-11,
100000,5.0799e-11,
0,5.0548e-11,
-100000,4.9659e-11,
-200000,5.1937e-11,
-300000,5.5429e-11,
-400000,5.4884e-11,
-500000,5.6843e-11,
-600000,5.8635e-11,
-700000,6.2057e-11,
-800000,5.9288e-11,
-900000,5.756e-11,
-1000000,6.301e-11,
-1100000,6.8343e-11,
-1200000,7.056e-11,
-1300000,7.2562e-11,
-1400000,6.7486e-11,
-1500000,6.4813e-11,
-1600000,6.5896e-11,
-1700000,6.2263e-11,
-1800000,6.4574e-11,
-1900000,6.1515e-11,
-2000000,5.7897e-11,
-2100000,5.8364e-11,
-2200000,5.4459e-11,
-2300000,5.3386e-11,
-2400000,5.408e-11,
-2500000,5.2093e-11,
-2600000,4.8957e-11,
-2700000,4.9406e-11,
-2800000,4.8523e-11,
-2900000,4.7849e-11,
-3000000,4.8392e-11,
-3100000,4.6407e-11,
-3200000,4.3425e-11,
-3300000,4.1806e-11,
-3400000,4.0418e-11,
-3500000,3.8667e-11,
-3600000,3.7423e-11,
-3700000,3.6479e-11,
-3800000,3.4914e-11,
-3900000,3.3267e-11,
-4000000,3.1941e-11,
-4100000,3.2153e-11,
-4200000,2.9815e-11,
-4300000,3.0295e-11,
-4400000,2.7902e-11,
-4500000,2.6749e-11,
-4600000,2.696e-11,
-4700000,2.6106e-11,
-4800000,2.621e-11,
-4900000,2.5802e-11,
-5000000,2.3941e-11,
-4950000,2.4546e-11,
-4850000,2.5799e-11,
-4750000,2.5364e-11,
-4650000,2.6169e-11,
-4550000,2.7552e-11,
-4450000,2.7453e-11,
-4350000,2.8306e-11,
-4250000,2.9178e-11,
-4150000,3.0357e-11,
-4050000,3.1595e-11,
-3950000,3.3284e-11,
-3850000,3.3274e-11,
-3750000,3.5518e-11,
-3650000,3.7607e-11,
-3550000,3.8533e-11,
-3450000,3.9192e-11,
-3350000,3.9866e-11,
-3250000,4.2242e-11,
-3150000,4.5249e-11,
-3050000,4.6889e-11,
-2950000,4.8218e-11,
-2850000,4.816e-11,
-2750000,4.9731e-11,
-2650000,5.0101e-11,
-2550000,5.1126e-11,
-2450000,5.2568e-11,
-2350000,5.4132e-11,
-2250000,5.4385e-11,
-2150000,5.5092e-11,
-2050000,5.6528e-11,
-1950000,5.9757e-11,
-1850000,6.2048e-11,
-1750000,6.3456e-11,
-1650000,6.359e-11,
-1550000,6.3599e-11,
-1450000,6.2711e-11,
-1350000,6.5958e-11,
-1250000,6.8836e-11,
-1150000,6.6765e-11,
-1050000,6.6777e-11,
-950000,6.0428e-11,
-850000,5.6235e-11,
-750000,6.1048e-11,
-650000,6.2365e-11,
-550000,5.694e-11,
-450000,5.5042e-11,
-350000,5.4222e-11,
-250000,5.3625e-11,
-150000,5.2494e-11,
-50000,5.2188e-11,
50000,4.9707e-11,
150000,5.1705e-11,
