General parameters:
Start time: 2023              8             29              1             46      52.753426
Finish time: 2023              8             29              1             53      55.771892
Dwell time (ms): 3000.000000
Source chamber pressure: 2.00e+3
Differential chamber pressure: 6.07e-07
Sample chamber pressure: 3.58e-08
Example position (nm): -4128400.000000,-107100.000000,-1000000.000000
Rotation angle (udeg): 40000230.000000
==========
Instrument status: 
0:Data Directory:/icon/data/2023_08_MoS2_5um_hbn_sub/
1:Sample:MoS2
2:Comments:no
3:PinholePlate:#C13
4:z_Zero:4200
5:Operator:djw77/nav31/kw570
==========
zscan inputs: 
z_sep:50000
z_range:200000 -6000000
data_path:/icon/data/2023_08_MoS2_5um_hbn_sub/
example_pos:-4128400           -107100          -1000000
N_dwell:200
sampling_period:15
make_plots:1
m1:0.98976
m2:-0.0073571
==========
Detector params:
Sampling period (ms): 15.000000
N dwell: 200.000000
Filament current (A): 1.540000
Filament emission (mA): 1.917936
Solenoid current (A): NaN
Solenoid shim current (A): NaN
Lens params:
0  685
1  300
2  125
3      -0.002
4       -0.01
5       0.012
6         0.8
7         2.1
8         2.8
9  3000
10  1450
11         0.85
12   0
==========
Data:
z(nm),I(A)
200000,5.0733e-11,
100000,4.9944e-11,
0,5.0144e-11,
-100000,5.0158e-11,
-200000,4.9912e-11,
-300000,5.0756e-11,
-400000,5.1407e-11,
-500000,5.1895e-11,
-600000,5.3279e-11,
-700000,5.3713e-11,
-800000,5.4335e-11,
-900000,5.3874e-11,
-1000000,5.5893e-11,
-1100000,5.6255e-11,
-1200000,5.6064e-11,
-1300000,5.753e-11,
-1400000,5.746e-11,
-1500000,5.8229e-11,
-1600000,5.7316e-11,
-1700000,5.7714e-11,
-1800000,5.8969e-11,
-1900000,5.8342e-11,
-2000000,5.751e-11,
-2100000,5.8082e-11,
-2200000,5.7897e-11,
-2300000,5.6689e-11,
-2400000,5.736e-11,
-2500000,5.7936e-11,
-2600000,5.5499e-11,
-2700000,5.4943e-11,
-2800000,5.4447e-11,
-2900000,5.4338e-11,
-3000000,5.2807e-11,
-3100000,5.2745e-11,
-3200000,5.095e-11,
-3300000,4.995e-11,
-3400000,4.9472e-11,
-3500000,4.9343e-11,
-3600000,4.7938e-11,
-3700000,4.6671e-11,
-3800000,4.6492e-11,
-3900000,4.6271e-11,
-4000000,4.4583e-11,
-4100000,4.4706e-11,
-4200000,4.325e-11,
-4300000,4.3963e-11,
-4400000,4.2363e-11,
-4500000,4.1827e-11,
-4600000,4.1091e-11,
-4700000,4.0597e-11,
-4800000,4.0013e-11,
-4900000,3.8557e-11,
-5000000,3.8853e-11,
-5100000,3.7909e-11,
-5200000,3.7456e-11,
-5300000,3.649e-11,
-5400000,3.6237e-11,
-5500000,3.5256e-11,
-5600000,3.46e-11,
-5700000,3.4068e-11,
-5800000,3.4255e-11,
-5900000,3.3723e-11,
-6000000,3.3161e-11,
-5950000,3.2859e-11,
-5850000,3.3211e-11,
-5750000,3.3749e-11,
-5650000,3.5435e-11,
-5550000,3.4583e-11,
-5450000,3.5949e-11,
-5350000,3.5825e-11,
-5250000,3.6955e-11,
-5150000,3.7537e-11,
-5050000,3.7524e-11,
-4950000,3.8347e-11,
-4850000,3.9796e-11,
-4750000,3.9812e-11,
-4650000,4.0912e-11,
-4550000,4.1644e-11,
-4450000,4.1293e-11,
-4350000,4.1961e-11,
-4250000,4.1988e-11,
-4150000,4.3055e-11,
-4050000,4.5154e-11,
-3950000,4.4437e-11,
-3850000,4.645e-11,
-3750000,4.6212e-11,
-3650000,4.8029e-11,
-3550000,5.0179e-11,
-3450000,4.9407e-11,
-3350000,5.063e-11,
-3250000,5.1119e-11,
-3150000,5.1715e-11,
-3050000,5.3446e-11,
-2950000,5.3285e-11,
-2850000,5.3527e-11,
-2750000,5.5311e-11,
-2650000,5.5034e-11,
-2550000,5.608e-11,
-2450000,5.714e-11,
-2350000,5.6963e-11,
-2250000,5.7499e-11,
-2150000,5.8568e-11,
-2050000,5.8028e-11,
-1950000,5.8407e-11,
-1850000,5.9605e-11,
-1750000,5.8609e-11,
-1650000,5.8459e-11,
-1550000,5.7674e-11,
-1450000,5.812e-11,
-1350000,5.7182e-11,
-1250000,5.7576e-11,
-1150000,5.778e-11,
-1050000,5.5509e-11,
-950000,5.5985e-11,
-850000,5.5691e-11,
-750000,5.4864e-11,
-650000,5.4053e-11,
-550000,5.3797e-11,
-450000,5.2989e-11,
-350000,5.2377e-11,
-250000,5.1433e-11,
-150000,5.0454e-11,
-50000,4.9484e-11,
50000,4.9169e-11,
150000,5.0248e-11,
