General parameters:
Start time: 2023              8             28              3             57      41.018277
Finish time: 2023              8             28              4              3      37.615661
Dwell time (ms): 3000.000000
Source chamber pressure: 2.00e+3
Differential chamber pressure: 6.34e-07
Sample chamber pressure: 3.62e-08
Example position (nm): -3345393.504340,329527.744977,-1000000.000000
Rotation angle (udeg): 97499735.000000
==========
Instrument status: 
0:Data Directory:/icon/data/2023_08_MoS2_5um_hbn_sub/
1:Sample:MoS2
2:Comments:no
3:PinholePlate:#C13
4:z_Zero:4200
5:Operator:djw77/nav31/kw570
==========
zscan inputs: 
z_sep:50000
z_range:200000 -5000000
data_path:/icon/data/2023_08_MoS2_5um_hbn_sub/
example_pos:-3345393.5043      329527.74498          -1000000
N_dwell:200
sampling_period:15
make_plots:1
m1:0.98976
m2:-0.0073571
==========
Detector params:
Sampling period (ms): 15.000000
N dwell: 200.000000
Filament current (A): 1.540000
Filament emission (mA): 1.903914
Solenoid current (A): NaN
Solenoid shim current (A): NaN
Lens params:
0  685
1  300
2  125
3      -0.002
4       -0.01
5       0.012
6         0.8
7         2.1
8         2.8
9  3000
10  1450
11         0.85
12   0
==========
Data:
z(nm),I(A)
200000,5.7804e-11,
100000,6.0748e-11,
0,6.1356e-11,
-100000,5.988e-11,
-200000,5.9166e-11,
-300000,5.6893e-11,
-400000,5.6823e-11,
-500000,6.1505e-11,
-600000,7.2905e-11,
-700000,9.6319e-11,
-800000,1.2887e-10,
-900000,1.5736e-10,
-1000000,1.695e-10,
-1100000,1.4475e-10,
-1200000,1.1018e-10,
-1300000,8.717e-11,
-1400000,7.008e-11,
-1500000,6.4033e-11,
-1600000,6.0999e-11,
-1700000,6.0869e-11,
-1800000,5.8272e-11,
-1900000,5.5672e-11,
-2000000,5.2898e-11,
-2100000,5.2885e-11,
-2200000,5.5638e-11,
-2300000,6.0112e-11,
-2400000,6.8829e-11,
-2500000,7.7232e-11,
-2600000,7.6742e-11,
-2700000,7.2814e-11,
-2800000,6.3234e-11,
-2900000,5.27e-11,
-3000000,4.7932e-11,
-3100000,4.4663e-11,
-3200000,4.3591e-11,
-3300000,4.4755e-11,
-3400000,4.3966e-11,
-3500000,4.1853e-11,
-3600000,4.2025e-11,
-3700000,4.0863e-11,
-3800000,3.7959e-11,
-3900000,3.6126e-11,
-4000000,3.5906e-11,
-4100000,3.5423e-11,
-4200000,3.4214e-11,
-4300000,3.567e-11,
-4400000,3.5784e-11,
-4500000,3.4855e-11,
-4600000,3.4901e-11,
-4700000,3.4032e-11,
-4800000,3.5024e-11,
-4900000,3.2683e-11,
-5000000,3.1224e-11,
-4950000,3.1926e-11,
-4850000,3.2791e-11,
-4750000,3.567e-11,
-4650000,3.5018e-11,
-4550000,3.6251e-11,
-4450000,3.5934e-11,
-4350000,3.592e-11,
-4250000,3.5511e-11,
-4150000,3.5488e-11,
-4050000,3.6518e-11,
-3950000,3.7358e-11,
-3850000,3.7617e-11,
-3750000,3.774e-11,
-3650000,3.988e-11,
-3550000,4.1657e-11,
-3450000,4.2676e-11,
-3350000,4.3964e-11,
-3250000,4.4371e-11,
-3150000,4.4978e-11,
-3050000,4.6773e-11,
-2950000,4.9863e-11,
-2850000,5.6288e-11,
-2750000,6.599e-11,
-2650000,7.3675e-11,
-2550000,7.8099e-11,
-2450000,7.4804e-11,
-2350000,6.6176e-11,
-2250000,5.8235e-11,
-2150000,5.4025e-11,
-2050000,5.2309e-11,
-1950000,5.3895e-11,
-1850000,5.6535e-11,
-1750000,5.9698e-11,
-1650000,6.1262e-11,
-1550000,6.2926e-11,
-1450000,6.5813e-11,
-1350000,7.4999e-11,
-1250000,9.4701e-11,
-1150000,1.213e-10,
-1050000,1.577e-10,
-950000,1.6544e-10,
-850000,1.4995e-10,
-750000,1.165e-10,
-650000,8.6709e-11,
-550000,6.7193e-11,
-450000,6.0197e-11,
-350000,5.7061e-11,
-250000,5.724e-11,
-150000,5.9121e-11,
-50000,6.0291e-11,
50000,6.2467e-11,
150000,5.8708e-11,
