General parameters:
Start time: 2023              8             28              3             27      31.294802
Finish time: 2023              8             28              3             33      27.499665
Dwell time (ms): 3000.000000
Source chamber pressure: 2.00e+3
Differential chamber pressure: 6.34e-07
Sample chamber pressure: 3.61e-08
Example position (nm): -3551627.812539,297984.280634,-1000000.000000
Rotation angle (udeg): 85000070.000000
==========
Instrument status: 
0:Data Directory:/icon/data/2023_08_MoS2_5um_hbn_sub/
1:Sample:MoS2
2:Comments:no
3:PinholePlate:#C13
4:z_Zero:4200
5:Operator:djw77/nav31/kw570
==========
zscan inputs: 
z_sep:50000
z_range:200000 -5000000
data_path:/icon/data/2023_08_MoS2_5um_hbn_sub/
example_pos:-3551627.8125      297984.28063          -1000000
N_dwell:200
sampling_period:15
make_plots:1
m1:0.98976
m2:-0.0073571
==========
Detector params:
Sampling period (ms): 15.000000
N dwell: 200.000000
Filament current (A): 1.540000
Filament emission (mA): 1.898442
Solenoid current (A): NaN
Solenoid shim current (A): NaN
Lens params:
0  685
1  300
2  125
3      -0.002
4       -0.01
5       0.012
6         0.8
7         2.1
8         2.8
9  3000
10  1450
11         0.85
12   0
==========
Data:
z(nm),I(A)
200000,1.1537e-10,
100000,1.0857e-10,
0,9.6337e-11,
-100000,8.5975e-11,
-200000,7.4694e-11,
-300000,6.5225e-11,
-400000,5.9822e-11,
-500000,6.0099e-11,
-600000,6.7374e-11,
-700000,8.6449e-11,
-800000,1.2804e-10,
-900000,1.7164e-10,
-1000000,1.8471e-10,
-1100000,1.6599e-10,
-1200000,1.2309e-10,
-1300000,9.2049e-11,
-1400000,7.3113e-11,
-1500000,6.4438e-11,
-1600000,6.0434e-11,
-1700000,5.9158e-11,
-1800000,5.7127e-11,
-1900000,5.7329e-11,
-2000000,5.6258e-11,
-2100000,5.5961e-11,
-2200000,5.6063e-11,
-2300000,5.8248e-11,
-2400000,6.1841e-11,
-2500000,6.4399e-11,
-2600000,6.2306e-11,
-2700000,5.731e-11,
-2800000,5.3301e-11,
-2900000,4.8237e-11,
-3000000,4.5837e-11,
-3100000,4.6955e-11,
-3200000,4.7512e-11,
-3300000,4.9965e-11,
-3400000,5.2984e-11,
-3500000,5.6502e-11,
-3600000,5.5644e-11,
-3700000,5.1719e-11,
-3800000,4.8524e-11,
-3900000,4.3559e-11,
-4000000,3.8429e-11,
-4100000,3.5955e-11,
-4200000,3.3268e-11,
-4300000,3.153e-11,
-4400000,3.1507e-11,
-4500000,2.9597e-11,
-4600000,3.0547e-11,
-4700000,3.0533e-11,
-4800000,2.9345e-11,
-4900000,2.8076e-11,
-5000000,2.8843e-11,
-4950000,2.8654e-11,
-4850000,2.8743e-11,
-4750000,2.9713e-11,
-4650000,3.0318e-11,
-4550000,3.0455e-11,
-4450000,3.036e-11,
-4350000,3.1565e-11,
-4250000,3.2935e-11,
-4150000,3.425e-11,
-4050000,3.5921e-11,
-3950000,3.9681e-11,
-3850000,4.3641e-11,
-3750000,4.8834e-11,
-3650000,5.4398e-11,
-3550000,5.5377e-11,
-3450000,5.5119e-11,
-3350000,5.1631e-11,
-3250000,4.953e-11,
-3150000,4.7714e-11,
-3050000,4.645e-11,
-2950000,4.7445e-11,
-2850000,4.9828e-11,
-2750000,5.4007e-11,
-2650000,6.1773e-11,
-2550000,6.3268e-11,
-2450000,6.4994e-11,
-2350000,6.1446e-11,
-2250000,5.8186e-11,
-2150000,5.5591e-11,
-2050000,5.5781e-11,
-1950000,5.6661e-11,
-1850000,5.7836e-11,
-1750000,5.7294e-11,
-1650000,5.8759e-11,
-1550000,6.2208e-11,
-1450000,6.6512e-11,
-1350000,7.8754e-11,
-1250000,1.0253e-10,
-1150000,1.401e-10,
-1050000,1.723e-10,
-950000,1.7905e-10,
-850000,1.5656e-10,
-750000,1.0856e-10,
-650000,7.7284e-11,
-550000,6.4658e-11,
-450000,6.0456e-11,
-350000,6.2492e-11,
-250000,7.0077e-11,
-150000,7.84e-11,
-50000,8.8582e-11,
50000,9.8946e-11,
150000,1.1241e-10,
