General parameters:
Start time: 2023              8             28              1             20      56.789064
Finish time: 2023              8             28              1             26      53.292415
Dwell time (ms): 3000.000000
Source chamber pressure: 2.00e+3
Differential chamber pressure: 6.36e-07
Sample chamber pressure: 3.58e-08
Example position (nm): -4189415.931740,-260277.913924,-1000000.000000
Rotation angle (udeg): 32499655.000000
==========
Instrument status: 
0:Data Directory:/icon/data/2023_08_MoS2_5um_hbn_sub/
1:Sample:MoS2
2:Comments:no
3:PinholePlate:#C13
4:z_Zero:4200
5:Operator:djw77/nav31/kw570
==========
zscan inputs: 
z_sep:50000
z_range:200000 -5000000
data_path:/icon/data/2023_08_MoS2_5um_hbn_sub/
example_pos:-4189415.9317     -260277.91392          -1000000
N_dwell:200
sampling_period:15
make_plots:1
m1:0.98976
m2:-0.0073571
==========
Detector params:
Sampling period (ms): 15.000000
N dwell: 200.000000
Filament current (A): 1.540000
Filament emission (mA): 1.900494
Solenoid current (A): NaN
Solenoid shim current (A): NaN
Lens params:
0  685
1  300
2  125
3      -0.002
4       -0.01
5       0.012
6         0.8
7         2.1
8         2.8
9  3000
10  1450
11         0.85
12   0
==========
Data:
z(nm),I(A)
200000,4.1549e-11,
100000,4.1286e-11,
0,4.1327e-11,
-100000,4.2002e-11,
-200000,4.1769e-11,
-300000,4.2763e-11,
-400000,4.3537e-11,
-500000,4.4479e-11,
-600000,4.4296e-11,
-700000,4.5827e-11,
-800000,4.6217e-11,
-900000,4.6517e-11,
-1000000,4.7673e-11,
-1100000,4.7381e-11,
-1200000,4.8313e-11,
-1300000,4.8889e-11,
-1400000,4.9209e-11,
-1500000,4.824e-11,
-1600000,4.9628e-11,
-1700000,4.9339e-11,
-1800000,4.9883e-11,
-1900000,5.0064e-11,
-2000000,4.9174e-11,
-2100000,4.8449e-11,
-2200000,4.7859e-11,
-2300000,4.8487e-11,
-2400000,4.8109e-11,
-2500000,4.6769e-11,
-2600000,4.6718e-11,
-2700000,4.6402e-11,
-2800000,4.5866e-11,
-2900000,4.5216e-11,
-3000000,4.3828e-11,
-3100000,4.5006e-11,
-3200000,4.3266e-11,
-3300000,4.2913e-11,
-3400000,4.248e-11,
-3500000,4.155e-11,
-3600000,4.0605e-11,
-3700000,4.0107e-11,
-3800000,3.9903e-11,
-3900000,3.9269e-11,
-4000000,3.8523e-11,
-4100000,3.7719e-11,
-4200000,3.6266e-11,
-4300000,3.6256e-11,
-4400000,3.5392e-11,
-4500000,3.4317e-11,
-4600000,3.4054e-11,
-4700000,3.2957e-11,
-4800000,3.2774e-11,
-4900000,3.3212e-11,
-5000000,3.2344e-11,
-4950000,3.1991e-11,
-4850000,3.2162e-11,
-4750000,3.3926e-11,
-4650000,3.4332e-11,
-4550000,3.4499e-11,
-4450000,3.4335e-11,
-4350000,3.6336e-11,
-4250000,3.688e-11,
-4150000,3.748e-11,
-4050000,3.7725e-11,
-3950000,3.8601e-11,
-3850000,3.9055e-11,
-3750000,3.9644e-11,
-3650000,4.0536e-11,
-3550000,4.1499e-11,
-3450000,4.143e-11,
-3350000,4.2524e-11,
-3250000,4.2502e-11,
-3150000,4.39e-11,
-3050000,4.4438e-11,
-2950000,4.591e-11,
-2850000,4.527e-11,
-2750000,4.7121e-11,
-2650000,4.7195e-11,
-2550000,4.8296e-11,
-2450000,4.7347e-11,
-2350000,4.9419e-11,
-2250000,4.8315e-11,
-2150000,4.9073e-11,
-2050000,4.9596e-11,
-1950000,4.8904e-11,
-1850000,4.9002e-11,
-1750000,4.9131e-11,
-1650000,4.9795e-11,
-1550000,4.9335e-11,
-1450000,4.8408e-11,
-1350000,4.6998e-11,
-1250000,4.8145e-11,
-1150000,4.8151e-11,
-1050000,4.8057e-11,
-950000,4.8008e-11,
-850000,4.667e-11,
-750000,4.6066e-11,
-650000,4.6083e-11,
-550000,4.516e-11,
-450000,4.4894e-11,
-350000,4.3878e-11,
-250000,4.3548e-11,
-150000,4.2626e-11,
-50000,4.2526e-11,
50000,4.2634e-11,
150000,4.1825e-11,
