General parameters:
Start time: 2023              8             29              6             11      24.299246
Finish time: 2023              8             29              6             18      30.490113
Dwell time (ms): 3000.000000
Source chamber pressure: 2.00e+3
Differential chamber pressure: 6.03e-07
Sample chamber pressure: 3.52e-08
Example position (nm): -2821395.047572,184800.673726,-1000000.000000
Rotation angle (udeg): 132499940.000000
==========
Instrument status: 
0:Data Directory:/icon/data/2023_08_MoS2_5um_hbn_sub/
1:Sample:MoS2
2:Comments:no
3:PinholePlate:#C13
4:z_Zero:4200
5:Operator:djw77/nav31/kw570
==========
zscan inputs: 
z_sep:50000
z_range:200000 -6000000
data_path:/icon/data/2023_08_MoS2_5um_hbn_sub/
example_pos:-2821395.0476      184800.67373          -1000000
N_dwell:200
sampling_period:15
make_plots:1
m1:0.98976
m2:-0.0073571
==========
Detector params:
Sampling period (ms): 15.000000
N dwell: 200.000000
Filament current (A): 1.540000
Filament emission (mA): 1.925118
Solenoid current (A): NaN
Solenoid shim current (A): NaN
Lens params:
0  685
1  300
2  125
3      -0.002
4       -0.01
5       0.012
6         0.8
7         2.1
8         2.8
9  3000
10  1450
11         0.85
12   0
==========
Data:
z(nm),I(A)
200000,7.6037e-11,
100000,7.1464e-11,
0,7.0322e-11,
-100000,7.008e-11,
-200000,6.8202e-11,
-300000,6.7123e-11,
-400000,6.6843e-11,
-500000,6.6688e-11,
-600000,7.032e-11,
-700000,6.9838e-11,
-800000,8.1573e-11,
-900000,8.9125e-11,
-1000000,7.0635e-11,
-1100000,7.1442e-11,
-1200000,7.0032e-11,
-1300000,6.824e-11,
-1400000,6.9259e-11,
-1500000,7.0379e-11,
-1600000,7.0064e-11,
-1700000,6.8059e-11,
-1800000,6.8799e-11,
-1900000,6.9117e-11,
-2000000,6.7325e-11,
-2100000,6.6984e-11,
-2200000,6.664e-11,
-2300000,6.6175e-11,
-2400000,6.5723e-11,
-2500000,6.3772e-11,
-2600000,6.3308e-11,
-2700000,6.3016e-11,
-2800000,6.3224e-11,
-2900000,6.2823e-11,
-3000000,5.9757e-11,
-3100000,5.8822e-11,
-3200000,5.8963e-11,
-3300000,5.7896e-11,
-3400000,5.6546e-11,
-3500000,5.5292e-11,
-3600000,5.5614e-11,
-3700000,5.4751e-11,
-3800000,5.2358e-11,
-3900000,5.1278e-11,
-4000000,5.0707e-11,
-4100000,5.1485e-11,
-4200000,5.0454e-11,
-4300000,4.8783e-11,
-4400000,4.8454e-11,
-4500000,4.6491e-11,
-4600000,4.5866e-11,
-4700000,4.5293e-11,
-4800000,4.4847e-11,
-4900000,4.4738e-11,
-5000000,4.3413e-11,
-5100000,4.2101e-11,
-5200000,4.1537e-11,
-5300000,4.0478e-11,
-5400000,4.0622e-11,
-5500000,4.004e-11,
-5600000,3.9952e-11,
-5700000,3.912e-11,
-5800000,3.802e-11,
-5900000,3.8995e-11,
-6000000,3.7907e-11,
-5950000,3.7117e-11,
-5850000,3.7841e-11,
-5750000,3.8834e-11,
-5650000,4.0169e-11,
-5550000,3.9248e-11,
-5450000,4.0038e-11,
-5350000,3.9917e-11,
-5250000,4.1154e-11,
-5150000,4.2012e-11,
-5050000,4.2958e-11,
-4950000,4.3453e-11,
-4850000,4.3827e-11,
-4750000,4.4866e-11,
-4650000,4.533e-11,
-4550000,4.5378e-11,
-4450000,4.7947e-11,
-4350000,4.8073e-11,
-4250000,4.8574e-11,
-4150000,4.9791e-11,
-4050000,5.0853e-11,
-3950000,5.0936e-11,
-3850000,5.2216e-11,
-3750000,5.4298e-11,
-3650000,5.3131e-11,
-3550000,5.3763e-11,
-3450000,5.6592e-11,
-3350000,5.5501e-11,
-3250000,5.864e-11,
-3150000,5.8598e-11,
-3050000,6.0122e-11,
-2950000,6.0375e-11,
-2850000,6.1375e-11,
-2750000,6.338e-11,
-2650000,6.5285e-11,
-2550000,6.475e-11,
-2450000,6.3697e-11,
-2350000,6.6318e-11,
-2250000,6.6627e-11,
-2150000,6.7762e-11,
-2050000,6.7007e-11,
-1950000,6.866e-11,
-1850000,6.8428e-11,
-1750000,6.9138e-11,
-1650000,7.0326e-11,
-1550000,7.0598e-11,
-1450000,7.0166e-11,
-1350000,6.8389e-11,
-1250000,7.0962e-11,
-1150000,7.4305e-11,
-1050000,7.0007e-11,
-950000,8.4683e-11,
-850000,9.7986e-11,
-750000,8.0842e-11,
-650000,7.0309e-11,
-550000,6.9545e-11,
-450000,6.9022e-11,
-350000,6.6067e-11,
-250000,6.6761e-11,
-150000,6.8517e-11,
-50000,7.0441e-11,
50000,7.0069e-11,
150000,7.6119e-11,
