General parameters:
Start time: 2023              8             21             14             30      38.728958
Finish time: 2023              8             21             14             36      34.854911
Dwell time (ms): 3000.000000
Source chamber pressure: 2.00e+3
Differential chamber pressure: 7.98e-07
Sample chamber pressure: 3.84e-08
Example position (nm): -3772674.258025,190355.608587,-1000000.000000
Rotation angle (udeg): 67499850.000000
==========
Instrument status: 
0:Data Directory:/icon/data/2023_08_MoS2_5um_hbn_sub/
1:Sample:MoS2
2:Comments:no
3:PinholePlate:#C13
4:z_Zero:4200
5:Operator:djw77/nav31/kw570
==========
zscan inputs: 
z_sep:50000
z_range:200000 -5000000
data_path:/icon/data/2023_08_MoS2_5um_hbn_sub/
example_pos:-3772674.258      190355.60859          -1000000
N_dwell:200
sampling_period:15
make_plots:0
m1:0.98976
m2:-0.0073571
==========
Detector params:
Sampling period (ms): 15.000000
N dwell: 200.000000
Filament current (A): 1.540000
Filament emission (mA): 1.743516
Solenoid current (A): NaN
Solenoid shim current (A): NaN
Lens params:
0  685
1  300
2  125
3      -0.002
4       -0.01
5       0.012
6         0.8
7         2.1
8         2.8
9  3000
10  1450
11         0.85
12   0
==========
Data:
z(nm),I(A)
200000,4.2208e-11,
100000,4.1496e-11,
0,4.0815e-11,
-100000,4.2368e-11,
-200000,4.1712e-11,
-300000,4.1865e-11,
-400000,4.2642e-11,
-500000,4.3133e-11,
-600000,4.4406e-11,
-700000,4.4683e-11,
-800000,4.4649e-11,
-900000,4.5555e-11,
-1000000,4.7346e-11,
-1100000,4.6316e-11,
-1200000,4.6756e-11,
-1300000,4.7391e-11,
-1400000,4.767e-11,
-1500000,4.8014e-11,
-1600000,4.8376e-11,
-1700000,4.7651e-11,
-1800000,4.7613e-11,
-1900000,4.8794e-11,
-2000000,4.735e-11,
-2100000,4.8268e-11,
-2200000,4.7736e-11,
-2300000,4.6856e-11,
-2400000,4.6683e-11,
-2500000,4.6659e-11,
-2600000,4.5605e-11,
-2700000,4.5918e-11,
-2800000,4.5145e-11,
-2900000,4.3593e-11,
-3000000,4.427e-11,
-3100000,4.2534e-11,
-3200000,4.1724e-11,
-3300000,4.1693e-11,
-3400000,4.0739e-11,
-3500000,4.0737e-11,
-3600000,3.9334e-11,
-3700000,3.8209e-11,
-3800000,3.7462e-11,
-3900000,3.6987e-11,
-4000000,3.6675e-11,
-4100000,3.5213e-11,
-4200000,3.5989e-11,
-4300000,3.4395e-11,
-4400000,3.4484e-11,
-4500000,3.3695e-11,
-4600000,3.2628e-11,
-4700000,3.0992e-11,
-4800000,3.1818e-11,
-4900000,3.0781e-11,
-5000000,2.9588e-11,
-4950000,3.0437e-11,
-4850000,3.1167e-11,
-4750000,3.2335e-11,
-4650000,3.2665e-11,
-4550000,3.3825e-11,
-4450000,3.3032e-11,
-4350000,3.4348e-11,
-4250000,3.4722e-11,
-4150000,3.5892e-11,
-4050000,3.6549e-11,
-3950000,3.7341e-11,
-3850000,3.5812e-11,
-3750000,3.7103e-11,
-3650000,3.8127e-11,
-3550000,3.9817e-11,
-3450000,4.0134e-11,
-3350000,4.1356e-11,
-3250000,4.1264e-11,
-3150000,4.2926e-11,
-3050000,4.3256e-11,
-2950000,4.4563e-11,
-2850000,4.4079e-11,
-2750000,4.3971e-11,
-2650000,4.4506e-11,
-2550000,4.5999e-11,
-2450000,4.5733e-11,
-2350000,4.6598e-11,
-2250000,4.7231e-11,
-2150000,4.7516e-11,
-2050000,4.8606e-11,
-1950000,4.7826e-11,
-1850000,4.7861e-11,
-1750000,4.7961e-11,
-1650000,4.8176e-11,
-1550000,4.8219e-11,
-1450000,4.7001e-11,
-1350000,4.7469e-11,
-1250000,4.6912e-11,
-1150000,4.6346e-11,
-1050000,4.6157e-11,
-950000,4.6432e-11,
-850000,4.5375e-11,
-750000,4.479e-11,
-650000,4.4255e-11,
-550000,4.3414e-11,
-450000,4.2587e-11,
-350000,4.3094e-11,
-250000,4.2756e-11,
-150000,4.2557e-11,
-50000,4.1565e-11,
50000,4.2061e-11,
150000,4.2161e-11,
