General parameters:
Start time: 2023              8             18             20             27      34.834556
Finish time: 2023              8             18             20             33      31.441413
Dwell time (ms): 3000.000000
Source chamber pressure: 2.00e+3
Differential chamber pressure: 7.93e-07
Sample chamber pressure: 3.78e-08
Example position (nm): -2800848.216019,139233.564551,-1000000.000000
Rotation angle (udeg): 132500220.000000
==========
Instrument status: 
0:Data Directory:/icon/data/2023_08_MoS2_5um_hbn_sub/
1:Sample:MoS2
2:Comments:no
3:PinholePlate:#C13
4:z_Zero:4200
5:Operator:djw77/nav31/kw570
==========
zscan inputs: 
z_sep:50000
z_range:200000 -5000000
data_path:/icon/data/2023_08_MoS2_5um_hbn_sub/
example_pos:-2800848.216      139233.56455          -1000000
N_dwell:200
sampling_period:15
make_plots:0
m1:0.98976
m2:-0.0073571
==========
Detector params:
Sampling period (ms): 15.000000
N dwell: 200.000000
Filament current (A): 1.540000
Filament emission (mA): 1.670670
Solenoid current (A): NaN
Solenoid shim current (A): NaN
Lens params:
0  685
1  300
2  125
3      -0.002
4       -0.01
5       0.012
6         0.8
7         2.1
8         2.8
9  3000
10  1450
11         0.85
12   0
==========
Data:
z(nm),I(A)
200000,4.0417e-11,
100000,4.0926e-11,
0,4.1273e-11,
-100000,4.1703e-11,
-200000,4.2228e-11,
-300000,4.2231e-11,
-400000,4.2228e-11,
-500000,4.2395e-11,
-600000,4.3487e-11,
-700000,4.3012e-11,
-800000,4.3161e-11,
-900000,4.2572e-11,
-1000000,4.3308e-11,
-1100000,4.302e-11,
-1200000,4.3621e-11,
-1300000,4.2454e-11,
-1400000,4.4296e-11,
-1500000,4.4594e-11,
-1600000,4.3044e-11,
-1700000,4.3813e-11,
-1800000,4.3849e-11,
-1900000,4.3155e-11,
-2000000,4.3437e-11,
-2100000,4.2301e-11,
-2200000,4.3816e-11,
-2300000,4.2236e-11,
-2400000,4.171e-11,
-2500000,4.0962e-11,
-2600000,3.9938e-11,
-2700000,3.9573e-11,
-2800000,3.9653e-11,
-2900000,3.8382e-11,
-3000000,3.8363e-11,
-3100000,3.7862e-11,
-3200000,3.7624e-11,
-3300000,3.6472e-11,
-3400000,3.6673e-11,
-3500000,3.5422e-11,
-3600000,3.4258e-11,
-3700000,3.3786e-11,
-3800000,3.4994e-11,
-3900000,3.3218e-11,
-4000000,3.269e-11,
-4100000,3.2393e-11,
-4200000,3.2017e-11,
-4300000,3.1065e-11,
-4400000,2.9895e-11,
-4500000,3.0104e-11,
-4600000,2.9398e-11,
-4700000,2.9286e-11,
-4800000,2.8759e-11,
-4900000,2.7574e-11,
-5000000,2.7168e-11,
-4950000,2.6762e-11,
-4850000,2.8311e-11,
-4750000,2.844e-11,
-4650000,2.906e-11,
-4550000,2.8627e-11,
-4450000,2.9812e-11,
-4350000,3.0415e-11,
-4250000,3.0486e-11,
-4150000,3.0855e-11,
-4050000,3.1245e-11,
-3950000,3.2456e-11,
-3850000,3.3326e-11,
-3750000,3.4984e-11,
-3650000,3.4246e-11,
-3550000,3.5293e-11,
-3450000,3.6059e-11,
-3350000,3.608e-11,
-3250000,3.7651e-11,
-3150000,3.7757e-11,
-3050000,3.8007e-11,
-2950000,3.813e-11,
-2850000,3.8914e-11,
-2750000,4.0568e-11,
-2650000,4.0743e-11,
-2550000,4.1701e-11,
-2450000,4.1617e-11,
-2350000,4.2838e-11,
-2250000,4.2095e-11,
-2150000,4.1737e-11,
-2050000,4.2578e-11,
-1950000,4.2426e-11,
-1850000,4.2576e-11,
-1750000,4.353e-11,
-1650000,4.3917e-11,
-1550000,4.3487e-11,
-1450000,4.3632e-11,
-1350000,4.3622e-11,
-1250000,4.3039e-11,
-1150000,4.3522e-11,
-1050000,4.3597e-11,
-950000,4.2802e-11,
-850000,4.3081e-11,
-750000,4.2485e-11,
-650000,4.2221e-11,
-550000,4.1752e-11,
-450000,4.2675e-11,
-350000,4.172e-11,
-250000,4.2098e-11,
-150000,4.251e-11,
-50000,4.1521e-11,
50000,4.2382e-11,
150000,4.1905e-11,
