General parameters:
Start time: 2023              8             29              3             26      54.465731
Finish time: 2023              8             29              3             33      58.263418
Dwell time (ms): 3000.000000
Source chamber pressure: 2.00e+3
Differential chamber pressure: 6.06e-07
Sample chamber pressure: 3.62e-08
Example position (nm): -3703720.693146,239595.076170,-1000000.000000
Rotation angle (udeg): 75000090.000000
==========
Instrument status: 
0:Data Directory:/icon/data/2023_08_MoS2_5um_hbn_sub/
1:Sample:MoS2
2:Comments:no
3:PinholePlate:#C13
4:z_Zero:4200
5:Operator:djw77/nav31/kw570
==========
zscan inputs: 
z_sep:50000
z_range:200000 -6000000
data_path:/icon/data/2023_08_MoS2_5um_hbn_sub/
example_pos:-3703720.6931      239595.07617          -1000000
N_dwell:200
sampling_period:15
make_plots:1
m1:0.98976
m2:-0.0073571
==========
Detector params:
Sampling period (ms): 15.000000
N dwell: 200.000000
Filament current (A): 1.540000
Filament emission (mA): 1.923750
Solenoid current (A): NaN
Solenoid shim current (A): NaN
Lens params:
0  685
1  300
2  125
3      -0.002
4       -0.01
5       0.012
6         0.8
7         2.1
8         2.8
9  3000
10  1450
11         0.85
12   0
==========
Data:
z(nm),I(A)
200000,2.0388e-10,
100000,1.8516e-10,
0,1.6694e-10,
-100000,1.5037e-10,
-200000,1.252e-10,
-300000,1.0484e-10,
-400000,8.9169e-11,
-500000,8.6828e-11,
-600000,9.4304e-11,
-700000,1.2522e-10,
-800000,1.9205e-10,
-900000,2.6305e-10,
-1000000,3.0607e-10,
-1100000,2.8403e-10,
-1200000,2.1198e-10,
-1300000,1.4774e-10,
-1400000,1.1229e-10,
-1500000,1.017e-10,
-1600000,9.8456e-11,
-1700000,1.076e-10,
-1800000,1.1999e-10,
-1900000,1.237e-10,
-2000000,1.1922e-10,
-2100000,1.0221e-10,
-2200000,8.772e-11,
-2300000,7.7316e-11,
-2400000,7.4187e-11,
-2500000,7.8004e-11,
-2600000,8.1863e-11,
-2700000,8.9801e-11,
-2800000,9.5417e-11,
-2900000,9.8246e-11,
-3000000,9.0288e-11,
-3100000,8.4194e-11,
-3200000,7.4169e-11,
-3300000,6.6686e-11,
-3400000,6.2547e-11,
-3500000,5.898e-11,
-3600000,5.8067e-11,
-3700000,5.4555e-11,
-3800000,5.1608e-11,
-3900000,5.0699e-11,
-4000000,4.8182e-11,
-4100000,4.6181e-11,
-4200000,4.6094e-11,
-4300000,4.3828e-11,
-4400000,4.2193e-11,
-4500000,4.1551e-11,
-4600000,4.0072e-11,
-4700000,3.9169e-11,
-4800000,3.8191e-11,
-4900000,3.7475e-11,
-5000000,3.6428e-11,
-5100000,3.5183e-11,
-5200000,3.4311e-11,
-5300000,3.3151e-11,
-5400000,3.3301e-11,
-5500000,3.2699e-11,
-5600000,3.3201e-11,
-5700000,3.0693e-11,
-5800000,3.0514e-11,
-5900000,2.9996e-11,
-6000000,2.9633e-11,
-5950000,2.9493e-11,
-5850000,2.9523e-11,
-5750000,3.0422e-11,
-5650000,3.1445e-11,
-5550000,3.309e-11,
-5450000,3.2936e-11,
-5350000,3.3053e-11,
-5250000,3.3923e-11,
-5150000,3.4694e-11,
-5050000,3.6432e-11,
-4950000,3.609e-11,
-4850000,3.788e-11,
-4750000,3.8678e-11,
-4650000,3.9646e-11,
-4550000,4.0407e-11,
-4450000,4.0239e-11,
-4350000,4.2111e-11,
-4250000,4.5058e-11,
-4150000,4.5329e-11,
-4050000,4.8218e-11,
-3950000,4.984e-11,
-3850000,5.1417e-11,
-3750000,5.2914e-11,
-3650000,5.5879e-11,
-3550000,5.7928e-11,
-3450000,6.0589e-11,
-3350000,6.3162e-11,
-3250000,6.9541e-11,
-3150000,7.9252e-11,
-3050000,8.6191e-11,
-2950000,9.6113e-11,
-2850000,9.8472e-11,
-2750000,9.5815e-11,
-2650000,8.7401e-11,
-2550000,8.1514e-11,
-2450000,7.7014e-11,
-2350000,7.601e-11,
-2250000,8.0743e-11,
-2150000,9.1948e-11,
-2050000,1.0954e-10,
-1950000,1.246e-10,
-1850000,1.2489e-10,
-1750000,1.1604e-10,
-1650000,1.041e-10,
-1550000,9.7834e-11,
-1450000,1.0399e-10,
-1350000,1.2229e-10,
-1250000,1.602e-10,
-1150000,2.2822e-10,
-1050000,2.8762e-10,
-950000,2.984e-10,
-850000,2.4352e-10,
-750000,1.6022e-10,
-650000,1.063e-10,
-550000,8.9174e-11,
-450000,8.5864e-11,
-350000,9.1689e-11,
-250000,1.0961e-10,
-150000,1.3402e-10,
-50000,1.5743e-10,
50000,1.7356e-10,
150000,2.0401e-10,
