General parameters:
Start time: 2023              8             22              2             28      10.097652
Finish time: 2023              8             22              2             34       5.212313
Dwell time (ms): 3000.000000
Source chamber pressure: 2.00e+3
Differential chamber pressure: 7.98e-07
Sample chamber pressure: 3.75e-08
Example position (nm): -3282974.290283,324057.695268,-1000000.000000
Rotation angle (udeg): 102500105.000000
==========
Instrument status: 
0:Data Directory:/icon/data/2023_08_MoS2_5um_hbn_sub/
1:Sample:MoS2
2:Comments:no
3:PinholePlate:#C13
4:z_Zero:4200
5:Operator:djw77/nav31/kw570
==========
zscan inputs: 
z_sep:50000
z_range:200000 -5000000
data_path:/icon/data/2023_08_MoS2_5um_hbn_sub/
example_pos:-3282974.2903      324057.69527          -1000000
N_dwell:200
sampling_period:15
make_plots:0
m1:0.98976
m2:-0.0073571
==========
Detector params:
Sampling period (ms): 15.000000
N dwell: 200.000000
Filament current (A): 1.540000
Filament emission (mA): 1.752750
Solenoid current (A): NaN
Solenoid shim current (A): NaN
Lens params:
0  685
1  300
2  125
3      -0.002
4       -0.01
5       0.012
6         0.8
7         2.1
8         2.8
9  3000
10  1450
11         0.85
12   0
==========
Data:
z(nm),I(A)
200000,4.5073e-11,
100000,4.7271e-11,
0,4.7044e-11,
-100000,4.7631e-11,
-200000,4.7917e-11,
-300000,4.8754e-11,
-400000,4.9046e-11,
-500000,5.3165e-11,
-600000,5.8315e-11,
-700000,6.9234e-11,
-800000,9.0403e-11,
-900000,1.0967e-10,
-1000000,1.117e-10,
-1100000,9.3614e-11,
-1200000,7.6351e-11,
-1300000,6.5025e-11,
-1400000,5.8555e-11,
-1500000,5.6359e-11,
-1600000,5.7888e-11,
-1700000,6.0405e-11,
-1800000,5.7841e-11,
-1900000,5.4152e-11,
-2000000,5.0061e-11,
-2100000,4.7732e-11,
-2200000,4.5795e-11,
-2300000,4.7221e-11,
-2400000,4.8981e-11,
-2500000,5.0447e-11,
-2600000,5.0144e-11,
-2700000,4.8547e-11,
-2800000,4.8099e-11,
-2900000,4.4668e-11,
-3000000,4.3995e-11,
-3100000,4.5081e-11,
-3200000,4.5631e-11,
-3300000,4.9158e-11,
-3400000,5.029e-11,
-3500000,4.9623e-11,
-3600000,4.6341e-11,
-3700000,4.4491e-11,
-3800000,3.9688e-11,
-3900000,3.5194e-11,
-4000000,3.2511e-11,
-4100000,3.2445e-11,
-4200000,3.1503e-11,
-4300000,3.0346e-11,
-4400000,2.8949e-11,
-4500000,2.9773e-11,
-4600000,2.8534e-11,
-4700000,2.8318e-11,
-4800000,2.8019e-11,
-4900000,2.6193e-11,
-5000000,2.6053e-11,
-4950000,2.7133e-11,
-4850000,2.7378e-11,
-4750000,2.7873e-11,
-4650000,2.7866e-11,
-4550000,2.8706e-11,
-4450000,2.8659e-11,
-4350000,2.9831e-11,
-4250000,3.0228e-11,
-4150000,3.0723e-11,
-4050000,3.2999e-11,
-3950000,3.5152e-11,
-3850000,3.7034e-11,
-3750000,4.1195e-11,
-3650000,4.5875e-11,
-3550000,4.6652e-11,
-3450000,5.1163e-11,
-3350000,5.0942e-11,
-3250000,4.792e-11,
-3150000,4.5609e-11,
-3050000,4.3819e-11,
-2950000,4.3943e-11,
-2850000,4.609e-11,
-2750000,4.832e-11,
-2650000,4.9282e-11,
-2550000,5.1253e-11,
-2450000,4.974e-11,
-2350000,4.8089e-11,
-2250000,4.6307e-11,
-2150000,4.7285e-11,
-2050000,4.8469e-11,
-1950000,5.0499e-11,
-1850000,5.5278e-11,
-1750000,5.9543e-11,
-1650000,5.8298e-11,
-1550000,5.749e-11,
-1450000,5.7635e-11,
-1350000,6.0815e-11,
-1250000,6.9876e-11,
-1150000,8.41e-11,
-1050000,1.058e-10,
-950000,1.1351e-10,
-850000,1.049e-10,
-750000,8.1381e-11,
-650000,6.3526e-11,
-550000,5.4582e-11,
-450000,5.1181e-11,
-350000,4.8794e-11,
-250000,4.7975e-11,
-150000,4.7203e-11,
-50000,4.6707e-11,
50000,4.652e-11,
150000,4.5858e-11,
