General parameters:
Start time: 2023             12             28             20              6      39.038951
Finish time: 2023             12             28             20             23      17.968721
Dwell time (ms): 3750.000000
Source chamber pressure: Error-S
Differential chamber pressure: 1.06e-03
Sample chamber pressure: 1.60e-08
Example position (nm): -3751000.000000,-847500.000000,-750000.000000
Rotation angle (udeg): 159999985.000000
==========
Instrument status: 
0:Data Directory:/icon/data/2023_12_defect1_repeat_5um_hbn_sub/
1:Sample:MoS2
2:Comments:no
3:PinholePlate:#C13
4:z_Zero:4200
5:Operator:djw77/nav31/kw570
==========
zscan inputs: 
z_sep:50000
z_range:0 -6000000
data_path:/icon/data/2023_12_defect1_repeat_5um_hbn_sub/
example_pos:-3751000  -847500  -750000
N_dwell:250
sampling_period:15
make_plots:1
m1:0.9867
m2:-0.008
example_pos_norm_1:-3775000  -750000  -750000
==========
Detector params:
Sampling period (ms): 15.000000
N dwell: 250.000000
Filament current (A): 1.540000
Filament emission (mA): 3.323898
Solenoid current (A): NaN
Solenoid shim current (A): NaN
Lens params:
0  685
1  300
2  125
3      -0.002
4       -0.01
5       0.012
6         0.8
7         2.1
8         2.8
9  3500
10  1400
11         0.85
12   0
==========
Data:
z(nm),I(A)
0,1.7456e-10,
-100000,1.6357e-10,
-200000,1.6057e-10,
-300000,1.6763e-10,
-400000,1.8851e-10,
-500000,2.3246e-10,
-600000,3.0173e-10,
-700000,3.3834e-10,
-800000,3.1534e-10,
-900000,2.4779e-10,
-1000000,2.0061e-10,
-1100000,1.7125e-10,
-1200000,1.5631e-10,
-1300000,1.4734e-10,
-1400000,1.4313e-10,
-1500000,1.4061e-10,
-1600000,1.4009e-10,
-1700000,1.3822e-10,
-1800000,1.4141e-10,
-1900000,1.4775e-10,
-2000000,1.6327e-10,
-2100000,1.8241e-10,
-2200000,1.9582e-10,
-2300000,1.961e-10,
-2400000,1.8007e-10,
-2500000,1.5882e-10,
-2600000,1.433e-10,
-2700000,1.3791e-10,
-2800000,1.3591e-10,
-2900000,1.4265e-10,
-3000000,1.5318e-10,
-3100000,1.6291e-10,
-3200000,1.6834e-10,
-3300000,1.6748e-10,
-3400000,1.5853e-10,
-3500000,1.4012e-10,
-3600000,1.2461e-10,
-3700000,1.1306e-10,
-3800000,1.0519e-10,
-3900000,1.0218e-10,
-4000000,9.9383e-11,
-4100000,9.8001e-11,
-4200000,9.5036e-11,
-4300000,9.3216e-11,
-4400000,9.2517e-11,
-4500000,9.102e-11,
-4600000,8.8554e-11,
-4700000,8.9636e-11,
-4800000,8.6139e-11,
-4900000,8.533e-11,
-5000000,8.3682e-11,
-5100000,8.3232e-11,
-5200000,8.2661e-11,
-5300000,8.141e-11,
-5400000,8.1187e-11,
-5500000,7.9519e-11,
-5600000,7.9002e-11,
-5700000,7.9215e-11,
-5800000,7.7774e-11,
-5900000,7.779e-11,
-6000000,7.6534e-11,
-5950000,7.6615e-11,
-5850000,7.7294e-11,
-5750000,7.8349e-11,
-5650000,7.8157e-11,
-5550000,7.9148e-11,
-5450000,7.9876e-11,
-5350000,8.1801e-11,
-5250000,8.2094e-11,
-5150000,8.3595e-11,
-5050000,8.3546e-11,
-4950000,8.4588e-11,
-4850000,8.5844e-11,
-4750000,8.6526e-11,
-4650000,8.9391e-11,
-4550000,9.0042e-11,
-4450000,9.2189e-11,
-4350000,9.2018e-11,
-4250000,9.4663e-11,
-4150000,9.5414e-11,
-4050000,9.8549e-11,
-3950000,1.0101e-10,
-3850000,1.0369e-10,
-3750000,1.0871e-10,
-3650000,1.1798e-10,
-3550000,1.3103e-10,
-3450000,1.4701e-10,
-3350000,1.619e-10,
-3250000,1.6896e-10,
-3150000,1.6613e-10,
-3050000,1.5782e-10,
-2950000,1.475e-10,
-2850000,1.39e-10,
-2750000,1.357e-10,
-2650000,1.4037e-10,
-2550000,1.5089e-10,
-2450000,1.7072e-10,
-2350000,1.8839e-10,
-2250000,1.9666e-10,
-2150000,1.9083e-10,
-2050000,1.7293e-10,
-1950000,1.5377e-10,
-1850000,1.4379e-10,
-1750000,1.3945e-10,
-1650000,1.3942e-10,
-1550000,1.3933e-10,
-1450000,1.4249e-10,
-1350000,1.4376e-10,
-1250000,1.4942e-10,
-1150000,1.6225e-10,
-1050000,1.8226e-10,
-950000,2.2255e-10,
-850000,2.8005e-10,
-750000,3.3619e-10,
-650000,3.2623e-10,
-550000,2.6543e-10,
-450000,2.0699e-10,
-350000,1.7603e-10,
-250000,1.6384e-10,
-150000,1.6199e-10,
-50000,1.6719e-10,
