General parameters:
Start time: 2023             12             28             16              2      10.516788
Finish time: 2023             12             28             16             18      51.766054
Dwell time (ms): 3750.000000
Source chamber pressure: Error-S
Differential chamber pressure: 1.04e-03
Sample chamber pressure: 1.60e-08
Example position (nm): -3515000.000000,-1146000.000000,-750000.000000
Rotation angle (udeg): 119999975.000000
==========
Instrument status: 
0:Data Directory:/icon/data/2023_12_defect1_repeat_5um_hbn_sub/
1:Sample:MoS2
2:Comments:no
3:PinholePlate:#C13
4:z_Zero:4200
5:Operator:djw77/nav31/kw570
==========
zscan inputs: 
z_sep:50000
z_range:0 -6000000
data_path:/icon/data/2023_12_defect1_repeat_5um_hbn_sub/
example_pos:-3515000 -1146000  -750000
N_dwell:250
sampling_period:15
make_plots:1
m1:0.9867
m2:-0.008
example_pos_norm_1:-3425000 -1125000  -750000
==========
Detector params:
Sampling period (ms): 15.000000
N dwell: 250.000000
Filament current (A): 1.540000
Filament emission (mA): 3.325266
Solenoid current (A): NaN
Solenoid shim current (A): NaN
Lens params:
0  685
1  300
2  125
3      -0.002
4       -0.01
5       0.012
6         0.8
7         2.1
8         2.8
9  3500
10  1400
11         0.85
12   0
==========
Data:
z(nm),I(A)
0,1.4491e-10,
-100000,1.4387e-10,
-200000,1.4572e-10,
-300000,1.5229e-10,
-400000,1.6631e-10,
-500000,2.0132e-10,
-600000,2.6981e-10,
-700000,3.676e-10,
-800000,4.1787e-10,
-900000,3.9545e-10,
-1000000,3.0202e-10,
-1100000,2.2425e-10,
-1200000,1.811e-10,
-1300000,1.6427e-10,
-1400000,1.6257e-10,
-1500000,1.7119e-10,
-1600000,1.7989e-10,
-1700000,1.7646e-10,
-1800000,1.5918e-10,
-1900000,1.4448e-10,
-2000000,1.3795e-10,
-2100000,1.346e-10,
-2200000,1.3701e-10,
-2300000,1.409e-10,
-2400000,1.4319e-10,
-2500000,1.4237e-10,
-2600000,1.398e-10,
-2700000,1.3594e-10,
-2800000,1.3265e-10,
-2900000,1.3634e-10,
-3000000,1.4028e-10,
-3100000,1.494e-10,
-3200000,1.631e-10,
-3300000,1.707e-10,
-3400000,1.6831e-10,
-3500000,1.6146e-10,
-3600000,1.4784e-10,
-3700000,1.328e-10,
-3800000,1.1827e-10,
-3900000,1.0976e-10,
-4000000,1.0449e-10,
-4100000,1.0104e-10,
-4200000,9.7103e-11,
-4300000,9.6157e-11,
-4400000,9.4207e-11,
-4500000,9.2402e-11,
-4600000,9.1512e-11,
-4700000,8.9834e-11,
-4800000,8.7801e-11,
-4900000,8.6556e-11,
-5000000,8.5116e-11,
-5100000,8.4558e-11,
-5200000,8.3024e-11,
-5300000,8.1802e-11,
-5400000,8.0788e-11,
-5500000,7.912e-11,
-5600000,7.8112e-11,
-5700000,7.8234e-11,
-5800000,7.7926e-11,
-5900000,7.8523e-11,
-6000000,7.7336e-11,
-5950000,7.7412e-11,
-5850000,7.6824e-11,
-5750000,7.8128e-11,
-5650000,7.8264e-11,
-5550000,7.8333e-11,
-5450000,7.9421e-11,
-5350000,8.1199e-11,
-5250000,8.2958e-11,
-5150000,8.3728e-11,
-5050000,8.4486e-11,
-4950000,8.5859e-11,
-4850000,8.702e-11,
-4750000,8.9027e-11,
-4650000,9.0298e-11,
-4550000,9.2022e-11,
-4450000,9.3143e-11,
-4350000,9.4738e-11,
-4250000,9.5721e-11,
-4150000,9.7754e-11,
-4050000,1.0218e-10,
-3950000,1.0603e-10,
-3850000,1.1355e-10,
-3750000,1.2477e-10,
-3650000,1.4047e-10,
-3550000,1.5632e-10,
-3450000,1.6665e-10,
-3350000,1.6842e-10,
-3250000,1.6563e-10,
-3150000,1.5486e-10,
-3050000,1.4609e-10,
-2950000,1.3717e-10,
-2850000,1.3418e-10,
-2750000,1.346e-10,
-2650000,1.3636e-10,
-2550000,1.4024e-10,
-2450000,1.4372e-10,
-2350000,1.4231e-10,
-2250000,1.3959e-10,
-2150000,1.3668e-10,
-2050000,1.357e-10,
-1950000,1.4e-10,
-1850000,1.523e-10,
-1750000,1.7029e-10,
-1650000,1.7943e-10,
-1550000,1.7617e-10,
-1450000,1.6707e-10,
-1350000,1.6173e-10,
-1250000,1.694e-10,
-1150000,1.9665e-10,
-1050000,2.5334e-10,
-950000,3.5334e-10,
-850000,4.1777e-10,
-750000,4.0052e-10,
-650000,3.1566e-10,
-550000,2.2977e-10,
-450000,1.8308e-10,
-350000,1.5917e-10,
-250000,1.4808e-10,
-150000,1.4507e-10,
-50000,1.4381e-10,
