General parameters:
Start time: 2023             12             28             17             53      17.475222
Finish time: 2023             12             28             18              9      56.937499
Dwell time (ms): 3750.000000
Source chamber pressure: Error-S
Differential chamber pressure: 1.04e-03
Sample chamber pressure: 1.62e-08
Example position (nm): -3654000.000000,-1018000.000000,-750000.000000
Rotation angle (udeg): 139999920.000000
==========
Instrument status: 
0:Data Directory:/icon/data/2023_12_defect1_repeat_5um_hbn_sub/
1:Sample:MoS2
2:Comments:no
3:PinholePlate:#C13
4:z_Zero:4200
5:Operator:djw77/nav31/kw570
==========
zscan inputs: 
z_sep:50000
z_range:0 -6000000
data_path:/icon/data/2023_12_defect1_repeat_5um_hbn_sub/
example_pos:-3654000 -1018000  -750000
N_dwell:250
sampling_period:15
make_plots:1
m1:0.9867
m2:-0.008
example_pos_norm_1:-3575000 -1000000  -750000
==========
Detector params:
Sampling period (ms): 15.000000
N dwell: 250.000000
Filament current (A): 1.540000
Filament emission (mA): 3.322188
Solenoid current (A): NaN
Solenoid shim current (A): NaN
Lens params:
0  685
1  300
2  125
3      -0.002
4       -0.01
5       0.012
6         0.8
7         2.1
8         2.8
9  3500
10  1400
11         0.85
12   0
==========
Data:
z(nm),I(A)
0,1.7743e-10,
-100000,1.6574e-10,
-200000,1.608e-10,
-300000,1.6362e-10,
-400000,1.7758e-10,
-500000,2.1302e-10,
-600000,2.7982e-10,
-700000,3.5136e-10,
-800000,3.571e-10,
-900000,3.0258e-10,
-1000000,2.3053e-10,
-1100000,1.8619e-10,
-1200000,1.6886e-10,
-1300000,1.6827e-10,
-1400000,1.8739e-10,
-1500000,2.2467e-10,
-1600000,2.5701e-10,
-1700000,2.6085e-10,
-1800000,2.3771e-10,
-1900000,1.9562e-10,
-2000000,1.6487e-10,
-2100000,1.5682e-10,
-2200000,1.6591e-10,
-2300000,1.9823e-10,
-2400000,2.4123e-10,
-2500000,2.914e-10,
-2600000,3.127e-10,
-2700000,3.0515e-10,
-2800000,2.6943e-10,
-2900000,2.1662e-10,
-3000000,1.7785e-10,
-3100000,1.5573e-10,
-3200000,1.4676e-10,
-3300000,1.4803e-10,
-3400000,1.5631e-10,
-3500000,1.6724e-10,
-3600000,1.776e-10,
-3700000,1.8215e-10,
-3800000,1.7904e-10,
-3900000,1.6971e-10,
-4000000,1.5504e-10,
-4100000,1.3657e-10,
-4200000,1.224e-10,
-4300000,1.1265e-10,
-4400000,1.0496e-10,
-4500000,1.0182e-10,
-4600000,9.9329e-11,
-4700000,9.6287e-11,
-4800000,9.6558e-11,
-4900000,9.572e-11,
-5000000,9.6102e-11,
-5100000,9.4511e-11,
-5200000,9.4074e-11,
-5300000,9.4478e-11,
-5400000,9.2911e-11,
-5500000,9.0028e-11,
-5600000,8.7676e-11,
-5700000,8.5774e-11,
-5800000,8.4684e-11,
-5900000,8.2074e-11,
-6000000,8.1162e-11,
-5950000,8.121e-11,
-5850000,8.3334e-11,
-5750000,8.5148e-11,
-5650000,8.7269e-11,
-5550000,8.6567e-11,
-5450000,8.9999e-11,
-5350000,9.2326e-11,
-5250000,9.4743e-11,
-5150000,9.4758e-11,
-5050000,9.433e-11,
-4950000,9.5022e-11,
-4850000,9.6204e-11,
-4750000,9.6882e-11,
-4650000,9.7669e-11,
-4550000,9.9796e-11,
-4450000,1.0208e-10,
-4350000,1.0874e-10,
-4250000,1.175e-10,
-4150000,1.2947e-10,
-4050000,1.4566e-10,
-3950000,1.6308e-10,
-3850000,1.7536e-10,
-3750000,1.7993e-10,
-3650000,1.8023e-10,
-3550000,1.7311e-10,
-3450000,1.6328e-10,
-3350000,1.5036e-10,
-3250000,1.4664e-10,
-3150000,1.4958e-10,
-3050000,1.6398e-10,
-2950000,1.9658e-10,
-2850000,2.4294e-10,
-2750000,2.8724e-10,
-2650000,3.1007e-10,
-2550000,3.0369e-10,
-2450000,2.6753e-10,
-2350000,2.1619e-10,
-2250000,1.8094e-10,
-2150000,1.6038e-10,
-2050000,1.5867e-10,
-1950000,1.7704e-10,
-1850000,2.174e-10,
-1750000,2.5383e-10,
-1650000,2.6422e-10,
-1550000,2.4657e-10,
-1450000,2.0635e-10,
-1350000,1.7582e-10,
-1250000,1.6778e-10,
-1150000,1.7639e-10,
-1050000,2.0675e-10,
-950000,2.6117e-10,
-850000,3.4071e-10,
-750000,3.663e-10,
-650000,3.2361e-10,
-550000,2.4428e-10,
-450000,1.9256e-10,
-350000,1.6835e-10,
-250000,1.6265e-10,
-150000,1.6323e-10,
-50000,1.702e-10,
