General parameters:
Start time: 2023             12             26             17             31      48.845017
Finish time: 2023             12             26             17             48      27.737251
Dwell time (ms): 3750.000000
Source chamber pressure: Error-S
Differential chamber pressure: 1.07e-03
Sample chamber pressure: 1.54e-08
Example position (nm): -3268000.000000,-1222000.000000,-750000.000000
Rotation angle (udeg): 94999935.000000
==========
Instrument status: 
0:Data Directory:/icon/data/2023_12_defect1_repeat_5um_hbn_sub/
1:Sample:MoS2
2:Comments:no
3:PinholePlate:#C13
4:z_Zero:4200
5:Operator:djw77/nav31/kw570
==========
zscan inputs: 
z_sep:50000
z_range:0 -6000000
data_path:/icon/data/2023_12_defect1_repeat_5um_hbn_sub/
example_pos:-3268000 -1222000  -750000
N_dwell:250
sampling_period:15
make_plots:1
m1:0.9867
m2:-0.008
example_pos_norm_1:-3188000 -1149000  -750000
==========
Detector params:
Sampling period (ms): 15.000000
N dwell: 250.000000
Filament current (A): 1.540000
Filament emission (mA): 3.315690
Solenoid current (A): NaN
Solenoid shim current (A): NaN
Lens params:
0  685
1  300
2  125
3      -0.002
4       -0.01
5       0.012
6         0.8
7         2.1
8         2.8
9  3500
10  1400
11         0.85
12   0
==========
Data:
z(nm),I(A)
0,2.1498e-10,
-100000,1.8828e-10,
-200000,1.7476e-10,
-300000,1.6858e-10,
-400000,1.7474e-10,
-500000,2.0455e-10,
-600000,2.704e-10,
-700000,3.8623e-10,
-800000,4.6429e-10,
-900000,4.6707e-10,
-1000000,3.9309e-10,
-1100000,2.7611e-10,
-1200000,2.1258e-10,
-1300000,1.8471e-10,
-1400000,1.7573e-10,
-1500000,1.7655e-10,
-1600000,1.8782e-10,
-1700000,1.9531e-10,
-1800000,1.9076e-10,
-1900000,1.7626e-10,
-2000000,1.6105e-10,
-2100000,1.5269e-10,
-2200000,1.4927e-10,
-2300000,1.4741e-10,
-2400000,1.4936e-10,
-2500000,1.4819e-10,
-2600000,1.4874e-10,
-2700000,1.471e-10,
-2800000,1.4517e-10,
-2900000,1.409e-10,
-3000000,1.3952e-10,
-3100000,1.3986e-10,
-3200000,1.387e-10,
-3300000,1.377e-10,
-3400000,1.358e-10,
-3500000,1.3131e-10,
-3600000,1.2559e-10,
-3700000,1.1917e-10,
-3800000,1.1508e-10,
-3900000,1.1017e-10,
-4000000,1.0822e-10,
-4100000,1.0364e-10,
-4200000,1.043e-10,
-4300000,1.0357e-10,
-4400000,1.0142e-10,
-4500000,1.0107e-10,
-4600000,1.0048e-10,
-4700000,9.9994e-11,
-4800000,9.6789e-11,
-4900000,9.6752e-11,
-5000000,9.5036e-11,
-5100000,9.2204e-11,
-5200000,8.9557e-11,
-5300000,8.8165e-11,
-5400000,8.5702e-11,
-5500000,8.536e-11,
-5600000,8.376e-11,
-5700000,8.2894e-11,
-5800000,8.2087e-11,
-5900000,8.2723e-11,
-6000000,8.0684e-11,
-5950000,8.0814e-11,
-5850000,8.1497e-11,
-5750000,8.2084e-11,
-5650000,8.2926e-11,
-5550000,8.4579e-11,
-5450000,8.5174e-11,
-5350000,8.7122e-11,
-5250000,8.8896e-11,
-5150000,9.1121e-11,
-5050000,9.4112e-11,
-4950000,9.604e-11,
-4850000,9.7065e-11,
-4750000,9.8042e-11,
-4650000,1.0032e-10,
-4550000,1.0074e-10,
-4450000,1.0141e-10,
-4350000,1.03e-10,
-4250000,1.0279e-10,
-4150000,1.0415e-10,
-4050000,1.0537e-10,
-3950000,1.0923e-10,
-3850000,1.1256e-10,
-3750000,1.1707e-10,
-3650000,1.2329e-10,
-3550000,1.2756e-10,
-3450000,1.3391e-10,
-3350000,1.3791e-10,
-3250000,1.3959e-10,
-3150000,1.3907e-10,
-3050000,1.3971e-10,
-2950000,1.4157e-10,
-2850000,1.4352e-10,
-2750000,1.4656e-10,
-2650000,1.4852e-10,
-2550000,1.5194e-10,
-2450000,1.5033e-10,
-2350000,1.4981e-10,
-2250000,1.4898e-10,
-2150000,1.5218e-10,
-2050000,1.5606e-10,
-1950000,1.6818e-10,
-1850000,1.8357e-10,
-1750000,1.9292e-10,
-1650000,1.9224e-10,
-1550000,1.8289e-10,
-1450000,1.7514e-10,
-1350000,1.7857e-10,
-1250000,1.9488e-10,
-1150000,2.3604e-10,
-1050000,3.2918e-10,
-950000,4.3873e-10,
-850000,4.7126e-10,
-750000,4.2279e-10,
-650000,3.2301e-10,
-550000,2.2994e-10,
-450000,1.8545e-10,
-350000,1.6905e-10,
-250000,1.7064e-10,
-150000,1.8116e-10,
-50000,1.9829e-10,
