General parameters:
Start time: 2023             12             28             17              3        1.28289
Finish time: 2023             12             28             17             19      38.947648
Dwell time (ms): 3750.000000
Source chamber pressure: Error-S
Differential chamber pressure: 1.05e-03
Sample chamber pressure: 1.62e-08
Example position (nm): -3587000.000000,-1091000.000000,-750000.000000
Rotation angle (udeg): 130000045.000000
==========
Instrument status: 
0:Data Directory:/icon/data/2023_12_defect1_repeat_5um_hbn_sub/
1:Sample:MoS2
2:Comments:no
3:PinholePlate:#C13
4:z_Zero:4200
5:Operator:djw77/nav31/kw570
==========
zscan inputs: 
z_sep:50000
z_range:0 -6000000
data_path:/icon/data/2023_12_defect1_repeat_5um_hbn_sub/
example_pos:-3587000 -1091000  -750000
N_dwell:250
sampling_period:15
make_plots:1
m1:0.9867
m2:-0.008
example_pos_norm_1:-3500000 -1075000  -750000
==========
Detector params:
Sampling period (ms): 15.000000
N dwell: 250.000000
Filament current (A): 1.540000
Filament emission (mA): 3.321162
Solenoid current (A): NaN
Solenoid shim current (A): NaN
Lens params:
0  685
1  300
2  125
3      -0.002
4       -0.01
5       0.012
6         0.8
7         2.1
8         2.8
9  3500
10  1400
11         0.85
12   0
==========
Data:
z(nm),I(A)
0,1.5681e-10,
-100000,1.5318e-10,
-200000,1.5128e-10,
-300000,1.5646e-10,
-400000,1.7144e-10,
-500000,2.0879e-10,
-600000,2.7565e-10,
-700000,3.6641e-10,
-800000,3.9735e-10,
-900000,3.5513e-10,
-1000000,2.657e-10,
-1100000,2.0503e-10,
-1200000,1.7712e-10,
-1300000,1.705e-10,
-1400000,1.8976e-10,
-1500000,2.2813e-10,
-1600000,2.5875e-10,
-1700000,2.6062e-10,
-1800000,2.3851e-10,
-1900000,1.9616e-10,
-2000000,1.6068e-10,
-2100000,1.4918e-10,
-2200000,1.5072e-10,
-2300000,1.6232e-10,
-2400000,1.824e-10,
-2500000,1.9924e-10,
-2600000,2.0729e-10,
-2700000,1.9507e-10,
-2800000,1.7649e-10,
-2900000,1.5468e-10,
-3000000,1.4297e-10,
-3100000,1.3496e-10,
-3200000,1.3064e-10,
-3300000,1.2796e-10,
-3400000,1.2419e-10,
-3500000,1.2217e-10,
-3600000,1.1884e-10,
-3700000,1.1542e-10,
-3800000,1.1198e-10,
-3900000,1.0887e-10,
-4000000,1.0661e-10,
-4100000,1.0455e-10,
-4200000,1.0297e-10,
-4300000,1.0275e-10,
-4400000,1.0211e-10,
-4500000,1.0157e-10,
-4600000,1.0111e-10,
-4700000,9.879e-11,
-4800000,9.7036e-11,
-4900000,9.4896e-11,
-5000000,9.2248e-11,
-5100000,8.9186e-11,
-5200000,8.6866e-11,
-5300000,8.4991e-11,
-5400000,8.3372e-11,
-5500000,8.2958e-11,
-5600000,8.0549e-11,
-5700000,7.8595e-11,
-5800000,7.8235e-11,
-5900000,7.8562e-11,
-6000000,7.8439e-11,
-5950000,7.6956e-11,
-5850000,7.8895e-11,
-5750000,7.9751e-11,
-5650000,8.0964e-11,
-5550000,8.045e-11,
-5450000,8.1892e-11,
-5350000,8.4414e-11,
-5250000,8.6285e-11,
-5150000,8.8745e-11,
-5050000,9.1627e-11,
-4950000,9.4192e-11,
-4850000,9.5668e-11,
-4750000,9.8138e-11,
-4650000,1.0053e-10,
-4550000,1.0145e-10,
-4450000,1.0258e-10,
-4350000,1.0271e-10,
-4250000,1.0283e-10,
-4150000,1.0485e-10,
-4050000,1.0649e-10,
-3950000,1.0885e-10,
-3850000,1.1062e-10,
-3750000,1.1412e-10,
-3650000,1.1762e-10,
-3550000,1.2082e-10,
-3450000,1.2243e-10,
-3350000,1.2667e-10,
-3250000,1.2788e-10,
-3150000,1.3243e-10,
-3050000,1.3818e-10,
-2950000,1.4824e-10,
-2850000,1.6583e-10,
-2750000,1.8567e-10,
-2650000,2.0311e-10,
-2550000,2.0448e-10,
-2450000,1.908e-10,
-2350000,1.7142e-10,
-2250000,1.5593e-10,
-2150000,1.4793e-10,
-2050000,1.5216e-10,
-1950000,1.7622e-10,
-1850000,2.1833e-10,
-1750000,2.5165e-10,
-1650000,2.6496e-10,
-1550000,2.5004e-10,
-1450000,2.0759e-10,
-1350000,1.762e-10,
-1250000,1.7227e-10,
-1150000,1.8587e-10,
-1050000,2.3037e-10,
-950000,3.0912e-10,
-850000,3.8896e-10,
-750000,3.9093e-10,
-650000,3.2731e-10,
-550000,2.3739e-10,
-450000,1.873e-10,
-350000,1.6387e-10,
-250000,1.545e-10,
-150000,1.5208e-10,
-50000,1.5378e-10,
