General parameters:
Start time: 2023             12             28             15             36      19.647334
Finish time: 2023             12             28             15             52      59.640874
Dwell time (ms): 3750.000000
Source chamber pressure: Error-S
Differential chamber pressure: 1.04e-03
Sample chamber pressure: 1.60e-08
Example position (nm): -3467000.000000,-1170000.000000,-750000.000000
Rotation angle (udeg): 115000000.000000
==========
Instrument status: 
0:Data Directory:/icon/data/2023_12_defect1_repeat_5um_hbn_sub/
1:Sample:MoS2
2:Comments:no
3:PinholePlate:#C13
4:z_Zero:4200
5:Operator:djw77/nav31/kw570
==========
zscan inputs: 
z_sep:50000
z_range:0 -6000000
data_path:/icon/data/2023_12_defect1_repeat_5um_hbn_sub/
example_pos:-3467000 -1170000  -750000
N_dwell:250
sampling_period:15
make_plots:1
m1:0.9867
m2:-0.008
example_pos_norm_1:-3375000 -1125000  -750000
==========
Detector params:
Sampling period (ms): 15.000000
N dwell: 250.000000
Filament current (A): 1.540000
Filament emission (mA): 3.323898
Solenoid current (A): NaN
Solenoid shim current (A): NaN
Lens params:
0  685
1  300
2  125
3      -0.002
4       -0.01
5       0.012
6         0.8
7         2.1
8         2.8
9  3500
10  1400
11         0.85
12   0
==========
Data:
z(nm),I(A)
0,1.4772e-10,
-100000,1.4691e-10,
-200000,1.4864e-10,
-300000,1.5348e-10,
-400000,1.6689e-10,
-500000,2.0196e-10,
-600000,2.666e-10,
-700000,3.7258e-10,
-800000,4.2468e-10,
-900000,4.0684e-10,
-1000000,3.2208e-10,
-1100000,2.3728e-10,
-1200000,1.8761e-10,
-1300000,1.6503e-10,
-1400000,1.5421e-10,
-1500000,1.525e-10,
-1600000,1.4994e-10,
-1700000,1.4737e-10,
-1800000,1.4023e-10,
-1900000,1.3604e-10,
-2000000,1.3496e-10,
-2100000,1.4102e-10,
-2200000,1.5336e-10,
-2300000,1.6767e-10,
-2400000,1.7315e-10,
-2500000,1.6927e-10,
-2600000,1.5942e-10,
-2700000,1.4393e-10,
-2800000,1.3397e-10,
-2900000,1.27e-10,
-3000000,1.2751e-10,
-3100000,1.2704e-10,
-3200000,1.2999e-10,
-3300000,1.3019e-10,
-3400000,1.2951e-10,
-3500000,1.2405e-10,
-3600000,1.1846e-10,
-3700000,1.1169e-10,
-3800000,1.0646e-10,
-3900000,1.0236e-10,
-4000000,9.9298e-11,
-4100000,9.8946e-11,
-4200000,9.7675e-11,
-4300000,9.6474e-11,
-4400000,9.5665e-11,
-4500000,9.4527e-11,
-4600000,9.3678e-11,
-4700000,9.0758e-11,
-4800000,9.0473e-11,
-4900000,8.858e-11,
-5000000,8.6754e-11,
-5100000,8.5544e-11,
-5200000,8.3425e-11,
-5300000,8.1824e-11,
-5400000,8.1358e-11,
-5500000,7.8387e-11,
-5600000,7.9801e-11,
-5700000,7.8377e-11,
-5800000,7.7509e-11,
-5900000,7.7542e-11,
-6000000,7.6925e-11,
-5950000,7.7878e-11,
-5850000,7.74e-11,
-5750000,7.8576e-11,
-5650000,7.8326e-11,
-5550000,7.7922e-11,
-5450000,8.0299e-11,
-5350000,8.1103e-11,
-5250000,8.29e-11,
-5150000,8.3773e-11,
-5050000,8.6294e-11,
-4950000,8.7368e-11,
-4850000,8.7811e-11,
-4750000,9.1096e-11,
-4650000,9.3019e-11,
-4550000,9.3616e-11,
-4450000,9.5375e-11,
-4350000,9.6229e-11,
-4250000,9.6081e-11,
-4150000,9.7372e-11,
-4050000,9.9539e-11,
-3950000,1.0114e-10,
-3850000,1.0515e-10,
-3750000,1.0902e-10,
-3650000,1.1542e-10,
-3550000,1.2183e-10,
-3450000,1.2704e-10,
-3350000,1.3012e-10,
-3250000,1.3108e-10,
-3150000,1.299e-10,
-3050000,1.2795e-10,
-2950000,1.275e-10,
-2850000,1.3015e-10,
-2750000,1.3702e-10,
-2650000,1.517e-10,
-2550000,1.6511e-10,
-2450000,1.71e-10,
-2350000,1.7041e-10,
-2250000,1.6006e-10,
-2150000,1.4629e-10,
-2050000,1.383e-10,
-1950000,1.3627e-10,
-1850000,1.3778e-10,
-1750000,1.4361e-10,
-1650000,1.4977e-10,
-1550000,1.5201e-10,
-1450000,1.5366e-10,
-1350000,1.5933e-10,
-1250000,1.7298e-10,
-1150000,2.0756e-10,
-1050000,2.7444e-10,
-950000,3.7637e-10,
-850000,4.3149e-10,
-750000,4.0911e-10,
-650000,3.189e-10,
-550000,2.2939e-10,
-450000,1.8112e-10,
-350000,1.5839e-10,
-250000,1.5063e-10,
-150000,1.4747e-10,
-50000,1.4731e-10,
