General parameters:
Start time: 2024              1              2             15              9      41.011424
Finish time: 2024              1              2             15             34      33.460814
Dwell time (ms): 3750.000000
Source chamber pressure: Error-S
Differential chamber pressure: 1.07e-03
Sample chamber pressure: 1.60e-08
Example position (nm): -3670000.000000,-996500.000000,-750000.000000
Rotation angle (udeg): 142499955.000000
==========
Instrument status: 
0:Data Directory:/icon/data/2023_12_defect1_repeat_5um_hbn_sub/
1:Sample:MoS2
2:Comments:no
3:PinholePlate:#C13
4:z_Zero:4200
5:Operator:djw77/nav31/kw570
==========
zscan inputs: 
z_sep:50000
z_range:0 -6000000
data_path:/icon/data/2023_12_defect1_repeat_5um_hbn_sub/
example_pos:-3670000  -996500  -750000
N_dwell:250
sampling_period:15
make_plots:1
m1:0.9867
m2:-0.008
example_pos_norm_1:-3675000  -950000  -750000
example_pos_norm_2:-3711000 -1015000  -750000
==========
Detector params:
Sampling period (ms): 15.000000
N dwell: 250.000000
Filament current (A): 1.540000
Filament emission (mA): 3.356046
Solenoid current (A): NaN
Solenoid shim current (A): NaN
Lens params:
0  685
1  300
2  125
3      -0.002
4       -0.01
5       0.012
6         0.8
7         2.1
8         2.8
9  3500
10  1400
11         0.85
12   0
==========
Data:
z(nm),I(A)
0,1.6819e-10,
-100000,1.5866e-10,
-200000,1.5309e-10,
-300000,1.5447e-10,
-400000,1.6706e-10,
-500000,1.987e-10,
-600000,2.6126e-10,
-700000,3.2868e-10,
-800000,3.3973e-10,
-900000,2.8591e-10,
-1000000,2.1703e-10,
-1100000,1.7666e-10,
-1200000,1.5711e-10,
-1300000,1.5583e-10,
-1400000,1.6818e-10,
-1500000,1.9878e-10,
-1600000,2.2287e-10,
-1700000,2.2702e-10,
-1800000,2.0619e-10,
-1900000,1.7181e-10,
-2000000,1.4698e-10,
-2100000,1.4187e-10,
-2200000,1.4904e-10,
-2300000,1.7126e-10,
-2400000,2.0171e-10,
-2500000,2.358e-10,
-2600000,2.537e-10,
-2700000,2.4497e-10,
-2800000,2.1803e-10,
-2900000,1.8217e-10,
-3000000,1.5314e-10,
-3100000,1.3667e-10,
-3200000,1.3092e-10,
-3300000,1.3138e-10,
-3400000,1.3515e-10,
-3500000,1.4054e-10,
-3600000,1.4575e-10,
-3700000,1.4735e-10,
-3800000,1.4455e-10,
-3900000,1.3735e-10,
-4000000,1.292e-10,
-4100000,1.1583e-10,
-4200000,1.0579e-10,
-4300000,1.0018e-10,
-4400000,9.4003e-11,
-4500000,9.058e-11,
-4600000,8.8653e-11,
-4700000,8.6871e-11,
-4800000,8.572e-11,
-4900000,8.4746e-11,
-5000000,8.4869e-11,
-5100000,8.4646e-11,
-5200000,8.3249e-11,
-5300000,8.275e-11,
-5400000,8.1197e-11,
-5500000,7.8928e-11,
-5600000,7.7329e-11,
-5700000,7.6793e-11,
-5800000,7.5228e-11,
-5900000,7.335e-11,
-6000000,7.2079e-11,
-5950000,7.2292e-11,
-5850000,7.4011e-11,
-5750000,7.6174e-11,
-5650000,7.651e-11,
-5550000,7.8452e-11,
-5450000,8.0783e-11,
-5350000,8.2574e-11,
-5250000,8.149e-11,
-5150000,8.386e-11,
-5050000,8.4171e-11,
-4950000,8.4972e-11,
-4850000,8.568e-11,
-4750000,8.5152e-11,
-4650000,8.6542e-11,
-4550000,8.8986e-11,
-4450000,9.1902e-11,
-4350000,9.5311e-11,
-4250000,1.0124e-10,
-4150000,1.0814e-10,
-4050000,1.2178e-10,
-3950000,1.3275e-10,
-3850000,1.3918e-10,
-3750000,1.4584e-10,
-3650000,1.4649e-10,
-3550000,1.4317e-10,
-3450000,1.3946e-10,
-3350000,1.344e-10,
-3250000,1.3008e-10,
-3150000,1.317e-10,
-3050000,1.4196e-10,
-2950000,1.616e-10,
-2850000,1.9527e-10,
-2750000,2.3128e-10,
-2650000,2.5334e-10,
-2550000,2.5143e-10,
-2450000,2.2202e-10,
-2350000,1.8975e-10,
-2250000,1.6064e-10,
-2150000,1.4587e-10,
-2050000,1.4299e-10,
-1950000,1.5693e-10,
-1850000,1.868e-10,
-1750000,2.1832e-10,
-1650000,2.3049e-10,
-1550000,2.1518e-10,
-1450000,1.8606e-10,
-1350000,1.6114e-10,
-1250000,1.5508e-10,
-1150000,1.6297e-10,
-1050000,1.9026e-10,
-950000,2.4134e-10,
-850000,3.1568e-10,
-750000,3.4194e-10,
-650000,3.026e-10,
-550000,2.3297e-10,
-450000,1.8358e-10,
-350000,1.5984e-10,
-250000,1.5152e-10,
-150000,1.5449e-10,
-50000,1.6265e-10,
