General parameters:
Start time: 2024              1              4             15             13      10.339407
Finish time: 2024              1              4             15             38       4.239495
Dwell time (ms): 3750.000000
Source chamber pressure: Error-S
Differential chamber pressure: 1.05e-03
Sample chamber pressure: 1.64e-08
Example position (nm): -3068000.000000,-1210000.000000,-750000.000000
Rotation angle (udeg): 75000175.000000
==========
Instrument status: 
0:Data Directory:/icon/data/2023_12_defect1_repeat_5um_hbn_sub/
1:Sample:MoS2
2:Comments:no
3:PinholePlate:#C13
4:z_Zero:4200
5:Operator:djw77/nav31/kw570
==========
zscan inputs: 
z_sep:50000
z_range:0 -6000000
data_path:/icon/data/2023_12_defect1_repeat_5um_hbn_sub/
example_pos:-3068000 -1210000  -750000
N_dwell:250
sampling_period:15
make_plots:1
m1:0.9867
m2:-0.008
example_pos_norm_1:-3150000 -1225000  -750000
example_pos_norm_2:-3074000 -1251000  -750000
==========
Detector params:
Sampling period (ms): 15.000000
N dwell: 250.000000
Filament current (A): 1.540000
Filament emission (mA): 3.363570
Solenoid current (A): NaN
Solenoid shim current (A): NaN
Lens params:
0  685
1  300
2  125
3      -0.002
4       -0.01
5       0.012
6         0.8
7         2.1
8         2.8
9  3500
10  1400
11         0.85
12   0
==========
Data:
z(nm),I(A)
0,2.0957e-10,
-100000,1.849e-10,
-200000,1.6688e-10,
-300000,1.5826e-10,
-400000,1.6376e-10,
-500000,1.967e-10,
-600000,2.6996e-10,
-700000,3.9318e-10,
-800000,4.6885e-10,
-900000,4.7143e-10,
-1000000,4.0319e-10,
-1100000,2.8522e-10,
-1200000,2.1857e-10,
-1300000,1.8398e-10,
-1400000,1.7789e-10,
-1500000,1.9551e-10,
-1600000,2.2592e-10,
-1700000,2.4748e-10,
-1800000,2.4156e-10,
-1900000,2.122e-10,
-2000000,1.7552e-10,
-2100000,1.5249e-10,
-2200000,1.4479e-10,
-2300000,1.4592e-10,
-2400000,1.5892e-10,
-2500000,1.7503e-10,
-2600000,1.9064e-10,
-2700000,1.9433e-10,
-2800000,1.8836e-10,
-2900000,1.6896e-10,
-3000000,1.5093e-10,
-3100000,1.3565e-10,
-3200000,1.2633e-10,
-3300000,1.1852e-10,
-3400000,1.1474e-10,
-3500000,1.1295e-10,
-3600000,1.1095e-10,
-3700000,1.0935e-10,
-3800000,1.0581e-10,
-3900000,1.0354e-10,
-4000000,9.9223e-11,
-4100000,9.6403e-11,
-4200000,9.4143e-11,
-4300000,9.1116e-11,
-4400000,8.903e-11,
-4500000,8.7948e-11,
-4600000,8.5248e-11,
-4700000,8.3562e-11,
-4800000,8.1443e-11,
-4900000,8.0868e-11,
-5000000,7.86e-11,
-5100000,7.6963e-11,
-5200000,7.4895e-11,
-5300000,7.5372e-11,
-5400000,7.4617e-11,
-5500000,7.3681e-11,
-5600000,7.3362e-11,
-5700000,7.1663e-11,
-5800000,7.047e-11,
-5900000,6.9091e-11,
-6000000,6.8457e-11,
-5950000,6.8388e-11,
-5850000,6.9644e-11,
-5750000,7.1048e-11,
-5650000,7.1683e-11,
-5550000,7.2765e-11,
-5450000,7.363e-11,
-5350000,7.4131e-11,
-5250000,7.4994e-11,
-5150000,7.6852e-11,
-5050000,7.8873e-11,
-4950000,7.918e-11,
-4850000,8.038e-11,
-4750000,8.3266e-11,
-4650000,8.4112e-11,
-4550000,8.6478e-11,
-4450000,8.7754e-11,
-4350000,8.9863e-11,
-4250000,9.2111e-11,
-4150000,9.5208e-11,
-4050000,9.8182e-11,
-3950000,1.0063e-10,
-3850000,1.0502e-10,
-3750000,1.1025e-10,
-3650000,1.1257e-10,
-3550000,1.1325e-10,
-3450000,1.1417e-10,
-3350000,1.1665e-10,
-3250000,1.2461e-10,
-3150000,1.3097e-10,
-3050000,1.4393e-10,
-2950000,1.6089e-10,
-2850000,1.7819e-10,
-2750000,1.9514e-10,
-2650000,1.9636e-10,
-2550000,1.8483e-10,
-2450000,1.6963e-10,
-2350000,1.5558e-10,
-2250000,1.4595e-10,
-2150000,1.4765e-10,
-2050000,1.621e-10,
-1950000,1.8933e-10,
-1850000,2.2619e-10,
-1750000,2.4729e-10,
-1650000,2.4363e-10,
-1550000,2.1582e-10,
-1450000,1.8716e-10,
-1350000,1.7934e-10,
-1250000,1.9427e-10,
-1150000,2.3903e-10,
-1050000,3.2977e-10,
-950000,4.412e-10,
-850000,4.8104e-10,
-750000,4.4759e-10,
-650000,3.4295e-10,
-550000,2.3463e-10,
-450000,1.796e-10,
-350000,1.5867e-10,
-250000,1.6167e-10,
-150000,1.7382e-10,
-50000,1.9559e-10,
