General parameters:
Start time: 2024              1              4             16             23      39.006978
Finish time: 2024              1              4             16             48      30.811056
Dwell time (ms): 3750.000000
Source chamber pressure: Error-S
Differential chamber pressure: 1.06e-03
Sample chamber pressure: 1.64e-08
Example position (nm): -3092000.000000,-1216000.000000,-750000.000000
Rotation angle (udeg): 77500050.000000
==========
Instrument status: 
0:Data Directory:/icon/data/2023_12_defect1_repeat_5um_hbn_sub/
1:Sample:MoS2
2:Comments:no
3:PinholePlate:#C13
4:z_Zero:4200
5:Operator:djw77/nav31/kw570
==========
zscan inputs: 
z_sep:50000
z_range:0 -6000000
data_path:/icon/data/2023_12_defect1_repeat_5um_hbn_sub/
example_pos:-3092000 -1216000  -750000
N_dwell:250
sampling_period:15
make_plots:1
m1:0.9867
m2:-0.008
example_pos_norm_1:-3175000 -1225000  -750000
example_pos_norm_2:-3102000 -1256000  -750000
==========
Detector params:
Sampling period (ms): 15.000000
N dwell: 250.000000
Filament current (A): 1.540000
Filament emission (mA): 3.365964
Solenoid current (A): NaN
Solenoid shim current (A): NaN
Lens params:
0  685
1  300
2  125
3      -0.002
4       -0.01
5       0.012
6         0.8
7         2.1
8         2.8
9  3500
10  1400
11         0.85
12   0
==========
Data:
z(nm),I(A)
0,2.2275e-10,
-100000,1.9477e-10,
-200000,1.7033e-10,
-300000,1.6197e-10,
-400000,1.6609e-10,
-500000,1.966e-10,
-600000,2.7059e-10,
-700000,3.9081e-10,
-800000,4.5885e-10,
-900000,4.5914e-10,
-1000000,4.0151e-10,
-1100000,2.9228e-10,
-1200000,2.2203e-10,
-1300000,1.8841e-10,
-1400000,1.8653e-10,
-1500000,2.0777e-10,
-1600000,2.465e-10,
-1700000,2.7173e-10,
-1800000,2.6838e-10,
-1900000,2.4078e-10,
-2000000,1.9657e-10,
-2100000,1.6287e-10,
-2200000,1.5038e-10,
-2300000,1.5618e-10,
-2400000,1.7731e-10,
-2500000,2.1401e-10,
-2600000,2.4999e-10,
-2700000,2.6382e-10,
-2800000,2.5344e-10,
-2900000,2.1698e-10,
-3000000,1.8027e-10,
-3100000,1.5195e-10,
-3200000,1.3186e-10,
-3300000,1.2103e-10,
-3400000,1.1805e-10,
-3500000,1.1516e-10,
-3600000,1.1618e-10,
-3700000,1.1689e-10,
-3800000,1.1561e-10,
-3900000,1.1249e-10,
-4000000,1.0926e-10,
-4100000,1.0533e-10,
-4200000,9.9996e-11,
-4300000,9.4994e-11,
-4400000,9.156e-11,
-4500000,8.839e-11,
-4600000,8.6445e-11,
-4700000,8.48e-11,
-4800000,8.2605e-11,
-4900000,8.1389e-11,
-5000000,8.1325e-11,
-5100000,7.8483e-11,
-5200000,7.7274e-11,
-5300000,7.6475e-11,
-5400000,7.7134e-11,
-5500000,7.457e-11,
-5600000,7.44e-11,
-5700000,7.4418e-11,
-5800000,7.3104e-11,
-5900000,7.1197e-11,
-6000000,7.101e-11,
-5950000,7.1424e-11,
-5850000,7.2177e-11,
-5750000,7.337e-11,
-5650000,7.3847e-11,
-5550000,7.5004e-11,
-5450000,7.5416e-11,
-5350000,7.7935e-11,
-5250000,7.718e-11,
-5150000,7.8536e-11,
-5050000,7.944e-11,
-4950000,8.1592e-11,
-4850000,8.2538e-11,
-4750000,8.3755e-11,
-4650000,8.556e-11,
-4550000,8.8581e-11,
-4450000,8.9546e-11,
-4350000,9.3135e-11,
-4250000,9.7643e-11,
-4150000,1.0255e-10,
-4050000,1.0707e-10,
-3950000,1.1214e-10,
-3850000,1.1579e-10,
-3750000,1.1613e-10,
-3650000,1.1815e-10,
-3550000,1.1704e-10,
-3450000,1.172e-10,
-3350000,1.1947e-10,
-3250000,1.2664e-10,
-3150000,1.4001e-10,
-3050000,1.6291e-10,
-2950000,1.9631e-10,
-2850000,2.3546e-10,
-2750000,2.62e-10,
-2650000,2.6487e-10,
-2550000,2.3798e-10,
-2450000,1.997e-10,
-2350000,1.6821e-10,
-2250000,1.5198e-10,
-2150000,1.5538e-10,
-2050000,1.7519e-10,
-1950000,2.1712e-10,
-1850000,2.5716e-10,
-1750000,2.7676e-10,
-1650000,2.6917e-10,
-1550000,2.3197e-10,
-1450000,1.9709e-10,
-1350000,1.8625e-10,
-1250000,1.9978e-10,
-1150000,2.4636e-10,
-1050000,3.3877e-10,
-950000,4.3572e-10,
-850000,4.705e-10,
-750000,4.4396e-10,
-650000,3.4246e-10,
-550000,2.341e-10,
-450000,1.7985e-10,
-350000,1.6285e-10,
-250000,1.6297e-10,
-150000,1.7983e-10,
-50000,2.0602e-10,
