General parameters:
Start time: 2024              1              6             16             33      39.994814
Finish time: 2024              1              6             16             58      32.212444
Dwell time (ms): 3750.000000
Source chamber pressure: Error-S
Differential chamber pressure: 1.04e-03
Sample chamber pressure: 1.60e-08
Example position (nm): -3631000.000000,-1054000.000000,-750000.000000
Rotation angle (udeg): 134999980.000000
==========
Instrument status: 
0:Data Directory:/icon/data/2023_12_defect1_repeat_5um_hbn_sub/
1:Sample:MoS2
2:Comments:no
3:PinholePlate:#C13
4:z_Zero:4200
5:Operator:djw77/nav31/kw570
==========
zscan inputs: 
z_sep:50000
z_range:0 -6000000
data_path:/icon/data/2023_12_defect1_repeat_5um_hbn_sub/
example_pos:-3631000 -1054000  -750000
N_dwell:250
sampling_period:15
make_plots:1
m1:0.9867
m2:-0.008
example_pos_norm_1:-3675000  -975000  -750000
example_pos_norm_2:-3672000 -1075000  -750000
==========
Detector params:
Sampling period (ms): 15.000000
N dwell: 250.000000
Filament current (A): 1.540000
Filament emission (mA): 3.384432
Solenoid current (A): NaN
Solenoid shim current (A): NaN
Lens params:
0  685
1  300
2  125
3      -0.002
4       -0.01
5       0.012
6         0.8
7         2.1
8         2.8
9  3500
10  1400
11         0.85
12   0
==========
Data:
z(nm),I(A)
0,1.6475e-10,
-100000,1.6075e-10,
-200000,1.5834e-10,
-300000,1.6259e-10,
-400000,1.7916e-10,
-500000,2.1384e-10,
-600000,2.85e-10,
-700000,3.7384e-10,
-800000,4.0133e-10,
-900000,3.527e-10,
-1000000,2.6362e-10,
-1100000,2.0698e-10,
-1200000,1.7815e-10,
-1300000,1.7528e-10,
-1400000,1.9689e-10,
-1500000,2.4696e-10,
-1600000,2.8338e-10,
-1700000,2.9008e-10,
-1800000,2.6511e-10,
-1900000,2.2033e-10,
-2000000,1.7571e-10,
-2100000,1.6019e-10,
-2200000,1.7056e-10,
-2300000,2.0189e-10,
-2400000,2.5095e-10,
-2500000,3.0163e-10,
-2600000,3.2913e-10,
-2700000,3.1916e-10,
-2800000,2.799e-10,
-2900000,2.2667e-10,
-3000000,1.8141e-10,
-3100000,1.5556e-10,
-3200000,1.4328e-10,
-3300000,1.398e-10,
-3400000,1.4334e-10,
-3500000,1.4813e-10,
-3600000,1.5083e-10,
-3700000,1.5297e-10,
-3800000,1.4799e-10,
-3900000,1.4077e-10,
-4000000,1.2962e-10,
-4100000,1.1972e-10,
-4200000,1.1033e-10,
-4300000,1.0398e-10,
-4400000,9.8505e-11,
-4500000,9.5484e-11,
-4600000,9.3076e-11,
-4700000,9.1672e-11,
-4800000,9.0083e-11,
-4900000,8.8324e-11,
-5000000,8.7474e-11,
-5100000,8.5932e-11,
-5200000,8.4213e-11,
-5300000,8.3496e-11,
-5400000,8.1979e-11,
-5500000,8.0507e-11,
-5600000,7.9212e-11,
-5700000,7.844e-11,
-5800000,7.6689e-11,
-5900000,7.6442e-11,
-6000000,7.5781e-11,
-5950000,7.5516e-11,
-5850000,7.7154e-11,
-5750000,7.7931e-11,
-5650000,7.8462e-11,
-5550000,7.9551e-11,
-5450000,8.1414e-11,
-5350000,8.2862e-11,
-5250000,8.3409e-11,
-5150000,8.4713e-11,
-5050000,8.6111e-11,
-4950000,8.87e-11,
-4850000,8.916e-11,
-4750000,9.058e-11,
-4650000,9.2118e-11,
-4550000,9.4762e-11,
-4450000,9.6933e-11,
-4350000,1.0082e-10,
-4250000,1.0748e-10,
-4150000,1.1426e-10,
-4050000,1.2374e-10,
-3950000,1.3301e-10,
-3850000,1.43e-10,
-3750000,1.5156e-10,
-3650000,1.5317e-10,
-3550000,1.5099e-10,
-3450000,1.4589e-10,
-3350000,1.4222e-10,
-3250000,1.4191e-10,
-3150000,1.4782e-10,
-3050000,1.648e-10,
-2950000,1.9895e-10,
-2850000,2.4884e-10,
-2750000,3.0072e-10,
-2650000,3.2827e-10,
-2550000,3.2574e-10,
-2450000,2.8261e-10,
-2350000,2.292e-10,
-2250000,1.8532e-10,
-2150000,1.6322e-10,
-2050000,1.6393e-10,
-1950000,1.9037e-10,
-1850000,2.4014e-10,
-1750000,2.7798e-10,
-1650000,2.8887e-10,
-1550000,2.7195e-10,
-1450000,2.2372e-10,
-1350000,1.8643e-10,
-1250000,1.7412e-10,
-1150000,1.8531e-10,
-1050000,2.2576e-10,
-950000,2.9576e-10,
-850000,3.7972e-10,
-750000,3.9726e-10,
-650000,3.3998e-10,
-550000,2.5154e-10,
-450000,1.9493e-10,
-350000,1.6827e-10,
-250000,1.5863e-10,
-150000,1.5807e-10,
-50000,1.615e-10,
