General parameters:
Start time: 2024              1              8             15             35       5.934755
Finish time: 2024              1              8             15             59      58.319463
Dwell time (ms): 3750.000000
Source chamber pressure: Error-S
Differential chamber pressure: 1.02e-03
Sample chamber pressure: 1.62e-08
Example position (nm): -3736000.000000,-895000.000000,-750000.000000
Rotation angle (udeg): 154999825.000000
==========
Instrument status: 
0:Data Directory:/icon/data/2023_12_defect1_repeat_5um_hbn_sub/
1:Sample:MoS2
2:Comments:no
3:PinholePlate:#C13
4:z_Zero:4200
5:Operator:djw77/nav31/kw570
==========
zscan inputs: 
z_sep:50000
z_range:0 -6000000
data_path:/icon/data/2023_12_defect1_repeat_5um_hbn_sub/
example_pos:-3736000  -895000  -750000
N_dwell:250
sampling_period:15
make_plots:1
m1:0.9867
m2:-0.008
example_pos_norm_1:-3750000  -825000  -750000
example_pos_norm_2:-3783000  -900900  -750000
==========
Detector params:
Sampling period (ms): 15.000000
N dwell: 250.000000
Filament current (A): 1.540000
Filament emission (mA): 3.395376
Solenoid current (A): NaN
Solenoid shim current (A): NaN
Lens params:
0  685
1  300
2  125
3      -0.002
4       -0.01
5       0.012
6         0.8
7         2.1
8         2.8
9  3500
10  1400
11         0.85
12   0
==========
Data:
z(nm),I(A)
0,1.8392e-10,
-100000,1.6988e-10,
-200000,1.6282e-10,
-300000,1.673e-10,
-400000,1.8716e-10,
-500000,2.308e-10,
-600000,3.1173e-10,
-700000,3.623e-10,
-800000,3.426e-10,
-900000,2.6628e-10,
-1000000,2.0978e-10,
-1100000,1.7585e-10,
-1200000,1.5701e-10,
-1300000,1.4681e-10,
-1400000,1.4546e-10,
-1500000,1.4593e-10,
-1600000,1.4551e-10,
-1700000,1.4412e-10,
-1800000,1.4271e-10,
-1900000,1.4309e-10,
-2000000,1.4908e-10,
-2100000,1.5756e-10,
-2200000,1.6273e-10,
-2300000,1.6235e-10,
-2400000,1.5467e-10,
-2500000,1.4451e-10,
-2600000,1.3973e-10,
-2700000,1.3898e-10,
-2800000,1.4236e-10,
-2900000,1.5305e-10,
-3000000,1.6778e-10,
-3100000,1.7995e-10,
-3200000,1.8835e-10,
-3300000,1.8424e-10,
-3400000,1.7241e-10,
-3500000,1.526e-10,
-3600000,1.339e-10,
-3700000,1.1897e-10,
-3800000,1.0952e-10,
-3900000,1.0643e-10,
-4000000,1.0388e-10,
-4100000,1.0241e-10,
-4200000,1.0425e-10,
-4300000,1.0457e-10,
-4400000,1.0534e-10,
-4500000,1.0525e-10,
-4600000,1.0344e-10,
-4700000,1.0047e-10,
-4800000,9.572e-11,
-4900000,9.1516e-11,
-5000000,8.7292e-11,
-5100000,8.4733e-11,
-5200000,8.1523e-11,
-5300000,7.8678e-11,
-5400000,7.7236e-11,
-5500000,7.5896e-11,
-5600000,7.4937e-11,
-5700000,7.267e-11,
-5800000,7.1391e-11,
-5900000,7.1111e-11,
-6000000,7.0794e-11,
-5950000,7.1513e-11,
-5850000,7.3045e-11,
-5750000,7.3143e-11,
-5650000,7.3529e-11,
-5550000,7.4864e-11,
-5450000,7.6513e-11,
-5350000,7.7646e-11,
-5250000,7.9446e-11,
-5150000,8.2244e-11,
-5050000,8.5651e-11,
-4950000,8.97e-11,
-4850000,9.3289e-11,
-4750000,9.8408e-11,
-4650000,1.0189e-10,
-4550000,1.0478e-10,
-4450000,1.0528e-10,
-4350000,1.0558e-10,
-4250000,1.0496e-10,
-4150000,1.0323e-10,
-4050000,1.0414e-10,
-3950000,1.0584e-10,
-3850000,1.0811e-10,
-3750000,1.1303e-10,
-3650000,1.2265e-10,
-3550000,1.3931e-10,
-3450000,1.5929e-10,
-3350000,1.7607e-10,
-3250000,1.881e-10,
-3150000,1.8761e-10,
-3050000,1.7659e-10,
-2950000,1.6134e-10,
-2850000,1.4743e-10,
-2750000,1.4224e-10,
-2650000,1.3926e-10,
-2550000,1.4296e-10,
-2450000,1.4713e-10,
-2350000,1.5747e-10,
-2250000,1.618e-10,
-2150000,1.599e-10,
-2050000,1.5345e-10,
-1950000,1.4538e-10,
-1850000,1.4195e-10,
-1750000,1.4441e-10,
-1650000,1.4532e-10,
-1550000,1.4645e-10,
-1450000,1.4577e-10,
-1350000,1.4512e-10,
-1250000,1.5011e-10,
-1150000,1.6371e-10,
-1050000,1.8749e-10,
-950000,2.3385e-10,
-850000,3.0065e-10,
-750000,3.6241e-10,
-650000,3.5139e-10,
-550000,2.7482e-10,
-450000,2.0877e-10,
-350000,1.754e-10,
-250000,1.6318e-10,
-150000,1.6475e-10,
-50000,1.7526e-10,
