General parameters:
Start time: 2023             12             30             16             19        32.1231
Finish time: 2023             12             30             16             36      12.570724
Dwell time (ms): 3750.000000
Source chamber pressure: Error-S
Differential chamber pressure: 1.04e-03
Sample chamber pressure: 1.60e-08
Example position (nm): -3772000.000000,-674000.000000,-750000.000000
Rotation angle (udeg): 179999970.000000
==========
Instrument status: 
0:Data Directory:/icon/data/2023_12_defect1_repeat_5um_hbn_sub/
1:Sample:MoS2
2:Comments:no
3:PinholePlate:#C13
4:z_Zero:4200
5:Operator:djw77/nav31/kw570
==========
zscan inputs: 
z_sep:50000
z_range:0 -6000000
data_path:/icon/data/2023_12_defect1_repeat_5um_hbn_sub/
example_pos:-3772000  -674000  -750000
N_dwell:250
sampling_period:15
make_plots:1
m1:0.9867
m2:-0.008
example_pos_norm_1:-3775000  -550000  -750000
==========
Detector params:
Sampling period (ms): 15.000000
N dwell: 250.000000
Filament current (A): 1.540000
Filament emission (mA): 3.336894
Solenoid current (A): NaN
Solenoid shim current (A): NaN
Lens params:
0  685
1  300
2  125
3      -0.002
4       -0.01
5       0.012
6         0.8
7         2.1
8         2.8
9  3500
10  1400
11         0.85
12   0
==========
Data:
z(nm),I(A)
0,1.3727e-10,
-100000,1.408e-10,
-200000,1.4979e-10,
-300000,1.6786e-10,
-400000,2.042e-10,
-500000,2.6669e-10,
-600000,3.2498e-10,
-700000,3.2386e-10,
-800000,2.6821e-10,
-900000,2.1614e-10,
-1000000,1.8803e-10,
-1100000,1.7537e-10,
-1200000,1.7609e-10,
-1300000,1.8996e-10,
-1400000,2.0708e-10,
-1500000,2.0801e-10,
-1600000,1.964e-10,
-1700000,1.723e-10,
-1800000,1.5417e-10,
-1900000,1.4584e-10,
-2000000,1.4402e-10,
-2100000,1.4436e-10,
-2200000,1.4563e-10,
-2300000,1.4243e-10,
-2400000,1.3715e-10,
-2500000,1.3255e-10,
-2600000,1.2803e-10,
-2700000,1.2786e-10,
-2800000,1.3047e-10,
-2900000,1.3549e-10,
-3000000,1.3915e-10,
-3100000,1.4199e-10,
-3200000,1.395e-10,
-3300000,1.3318e-10,
-3400000,1.2323e-10,
-3500000,1.1373e-10,
-3600000,1.0435e-10,
-3700000,9.9573e-11,
-3800000,9.6968e-11,
-3900000,9.6236e-11,
-4000000,9.4198e-11,
-4100000,9.2267e-11,
-4200000,9.1387e-11,
-4300000,9.0563e-11,
-4400000,8.8669e-11,
-4500000,8.6631e-11,
-4600000,8.6372e-11,
-4700000,8.3913e-11,
-4800000,8.2704e-11,
-4900000,8.1015e-11,
-5000000,8.0841e-11,
-5100000,7.9359e-11,
-5200000,7.8708e-11,
-5300000,7.8798e-11,
-5400000,7.6757e-11,
-5500000,7.5037e-11,
-5600000,7.2754e-11,
-5700000,7.5034e-11,
-5800000,7.4951e-11,
-5900000,7.4886e-11,
-6000000,7.3099e-11,
-5950000,7.3191e-11,
-5850000,7.5014e-11,
-5750000,7.5479e-11,
-5650000,7.4506e-11,
-5550000,7.2654e-11,
-5450000,7.6131e-11,
-5350000,7.7553e-11,
-5250000,7.8349e-11,
-5150000,7.8883e-11,
-5050000,7.9492e-11,
-4950000,8.0768e-11,
-4850000,8.1396e-11,
-4750000,8.3355e-11,
-4650000,8.4272e-11,
-4550000,8.6264e-11,
-4450000,8.8188e-11,
-4350000,8.9244e-11,
-4250000,8.9854e-11,
-4150000,9.1475e-11,
-4050000,9.2136e-11,
-3950000,9.4112e-11,
-3850000,9.5631e-11,
-3750000,9.8896e-11,
-3650000,1.0246e-10,
-3550000,1.0849e-10,
-3450000,1.171e-10,
-3350000,1.284e-10,
-3250000,1.3748e-10,
-3150000,1.4079e-10,
-3050000,1.4041e-10,
-2950000,1.376e-10,
-2850000,1.3226e-10,
-2750000,1.2828e-10,
-2650000,1.276e-10,
-2550000,1.3121e-10,
-2450000,1.3591e-10,
-2350000,1.3936e-10,
-2250000,1.4381e-10,
-2150000,1.449e-10,
-2050000,1.4356e-10,
-1950000,1.4393e-10,
-1850000,1.4837e-10,
-1750000,1.6245e-10,
-1650000,1.8531e-10,
-1550000,2.0518e-10,
-1450000,2.1026e-10,
-1350000,1.9756e-10,
-1250000,1.8246e-10,
-1150000,1.7454e-10,
-1050000,1.7911e-10,
-950000,2.007e-10,
-850000,2.4067e-10,
-750000,3.028e-10,
-650000,3.3397e-10,
-550000,3.0349e-10,
-450000,2.3276e-10,
-350000,1.8496e-10,
-250000,1.5563e-10,
-150000,1.4245e-10,
-50000,1.3859e-10,
