General parameters:
Start time: 2024              1              5             16             44      50.172231
Finish time: 2024              1              5             17              9      43.286858
Dwell time (ms): 3750.000000
Source chamber pressure: Error-S
Differential chamber pressure: 1.06e-03
Sample chamber pressure: 1.60e-08
Example position (nm): -3323000.000000,-1218000.000000,-750000.000000
Rotation angle (udeg): 100000000.000000
==========
Instrument status: 
0:Data Directory:/icon/data/2023_12_defect1_repeat_5um_hbn_sub/
1:Sample:MoS2
2:Comments:no
3:PinholePlate:#C13
4:z_Zero:4200
5:Operator:djw77/nav31/kw570
==========
zscan inputs: 
z_sep:50000
z_range:0 -6000000
data_path:/icon/data/2023_12_defect1_repeat_5um_hbn_sub/
example_pos:-3323000 -1218000  -750000
N_dwell:250
sampling_period:15
make_plots:1
m1:0.9867
m2:-0.008
example_pos_norm_1:-3400000 -1200000  -750000
example_pos_norm_2:-3344000 -1250000  -750000
==========
Detector params:
Sampling period (ms): 15.000000
N dwell: 250.000000
Filament current (A): 1.540000
Filament emission (mA): 3.373146
Solenoid current (A): NaN
Solenoid shim current (A): NaN
Lens params:
0  685
1  300
2  125
3      -0.002
4       -0.01
5       0.012
6         0.8
7         2.1
8         2.8
9  3500
10  1400
11         0.85
12   0
==========
Data:
z(nm),I(A)
0,1.8978e-10,
-100000,1.7346e-10,
-200000,1.63e-10,
-300000,1.6042e-10,
-400000,1.6752e-10,
-500000,1.9991e-10,
-600000,2.6934e-10,
-700000,3.8693e-10,
-800000,4.6166e-10,
-900000,4.6113e-10,
-1000000,3.8865e-10,
-1100000,2.7797e-10,
-1200000,2.0689e-10,
-1300000,1.7282e-10,
-1400000,1.5974e-10,
-1500000,1.5405e-10,
-1600000,1.5353e-10,
-1700000,1.5224e-10,
-1800000,1.4974e-10,
-1900000,1.4584e-10,
-2000000,1.4321e-10,
-2100000,1.4382e-10,
-2200000,1.4978e-10,
-2300000,1.5256e-10,
-2400000,1.5196e-10,
-2500000,1.476e-10,
-2600000,1.3872e-10,
-2700000,1.3321e-10,
-2800000,1.2596e-10,
-2900000,1.243e-10,
-3000000,1.2519e-10,
-3100000,1.3031e-10,
-3200000,1.3708e-10,
-3300000,1.4172e-10,
-3400000,1.4409e-10,
-3500000,1.4037e-10,
-3600000,1.3327e-10,
-3700000,1.227e-10,
-3800000,1.1255e-10,
-3900000,1.042e-10,
-4000000,9.9496e-11,
-4100000,9.6474e-11,
-4200000,9.3387e-11,
-4300000,9.2373e-11,
-4400000,9.0873e-11,
-4500000,8.9335e-11,
-4600000,8.9062e-11,
-4700000,8.8117e-11,
-4800000,8.6702e-11,
-4900000,8.4188e-11,
-5000000,8.2946e-11,
-5100000,8.2223e-11,
-5200000,8.0641e-11,
-5300000,8.0486e-11,
-5400000,7.9609e-11,
-5500000,7.8498e-11,
-5600000,7.7184e-11,
-5700000,7.5754e-11,
-5800000,7.451e-11,
-5900000,7.4437e-11,
-6000000,7.3736e-11,
-5950000,7.3516e-11,
-5850000,7.4264e-11,
-5750000,7.5858e-11,
-5650000,7.6135e-11,
-5550000,7.6338e-11,
-5450000,7.8676e-11,
-5350000,7.8568e-11,
-5250000,8.059e-11,
-5150000,8.191e-11,
-5050000,8.3363e-11,
-4950000,8.3449e-11,
-4850000,8.6005e-11,
-4750000,8.7576e-11,
-4650000,8.8681e-11,
-4550000,8.8956e-11,
-4450000,8.9546e-11,
-4350000,9.102e-11,
-4250000,9.3332e-11,
-4150000,9.4705e-11,
-4050000,9.6875e-11,
-3950000,1.0028e-10,
-3850000,1.0755e-10,
-3750000,1.1543e-10,
-3650000,1.2519e-10,
-3550000,1.3469e-10,
-3450000,1.4104e-10,
-3350000,1.4265e-10,
-3250000,1.3875e-10,
-3150000,1.3338e-10,
-3050000,1.2785e-10,
-2950000,1.258e-10,
-2850000,1.2477e-10,
-2750000,1.2831e-10,
-2650000,1.357e-10,
-2550000,1.4377e-10,
-2450000,1.4985e-10,
-2350000,1.5391e-10,
-2250000,1.5221e-10,
-2150000,1.471e-10,
-2050000,1.4296e-10,
-1950000,1.4406e-10,
-1850000,1.4789e-10,
-1750000,1.5138e-10,
-1650000,1.5292e-10,
-1550000,1.5371e-10,
-1450000,1.5558e-10,
-1350000,1.6456e-10,
-1250000,1.856e-10,
-1150000,2.3065e-10,
-1050000,3.205e-10,
-950000,4.3146e-10,
-850000,4.769e-10,
-750000,4.4436e-10,
-650000,3.4093e-10,
-550000,2.3511e-10,
-450000,1.8087e-10,
-350000,1.6084e-10,
-250000,1.5806e-10,
-150000,1.6658e-10,
-50000,1.7941e-10,
