General parameters:
Start time: 2024              1              9             16             48      51.621083
Finish time: 2024              1              9             17             13      45.661125
Dwell time (ms): 3750.000000
Source chamber pressure: Error-S
Differential chamber pressure: 1.01e-03
Sample chamber pressure: 1.58e-08
Example position (nm): -3644000.000000,-1058000.000000,-750000.000000
Rotation angle (udeg): 135000145.000000
==========
Instrument status: 
0:Data Directory:/icon/data/2023_12_defect1_repeat_5um_hbn_sub/
1:Sample:MoS2
2:Comments:no
3:PinholePlate:#C13
4:z_Zero:4200
5:Operator:djw77/nav31/kw570
==========
zscan inputs: 
z_sep:50000
z_range:0 -6000000
data_path:/icon/data/2023_12_defect1_repeat_5um_hbn_sub/
example_pos:-3644000 -1058000  -750000
N_dwell:250
sampling_period:15
make_plots:1
m1:0.9867
m2:-0.008
example_pos_norm_1:-3675000  -975000  -750000
example_pos_norm_2:-3684000 -1070000  -750000
==========
Detector params:
Sampling period (ms): 15.000000
N dwell: 250.000000
Filament current (A): 1.540000
Filament emission (mA): 3.402900
Solenoid current (A): NaN
Solenoid shim current (A): NaN
Lens params:
0  685
1  300
2  125
3      -0.002
4       -0.01
5       0.012
6         0.8
7         2.1
8         2.8
9  3500
10  1400
11         0.85
12   0
==========
Data:
z(nm),I(A)
0,1.5629e-10,
-100000,1.5133e-10,
-200000,1.4814e-10,
-300000,1.5515e-10,
-400000,1.7108e-10,
-500000,2.1836e-10,
-600000,3.1763e-10,
-700000,4.1929e-10,
-800000,4.332e-10,
-900000,3.4608e-10,
-1000000,2.4144e-10,
-1100000,1.8503e-10,
-1200000,1.6308e-10,
-1300000,1.6778e-10,
-1400000,2.0304e-10,
-1500000,2.6936e-10,
-1600000,3.098e-10,
-1700000,3.1106e-10,
-1800000,2.7644e-10,
-1900000,2.1347e-10,
-2000000,1.6405e-10,
-2100000,1.5319e-10,
-2200000,1.701e-10,
-2300000,2.1793e-10,
-2400000,2.8551e-10,
-2500000,3.5749e-10,
-2600000,3.8365e-10,
-2700000,3.5849e-10,
-2800000,2.9754e-10,
-2900000,2.2049e-10,
-3000000,1.6863e-10,
-3100000,1.4319e-10,
-3200000,1.3403e-10,
-3300000,1.358e-10,
-3400000,1.4085e-10,
-3500000,1.4741e-10,
-3600000,1.5357e-10,
-3700000,1.5349e-10,
-3800000,1.4709e-10,
-3900000,1.3639e-10,
-4000000,1.2316e-10,
-4100000,1.1209e-10,
-4200000,1.0331e-10,
-4300000,9.6889e-11,
-4400000,9.2766e-11,
-4500000,9.0053e-11,
-4600000,8.6732e-11,
-4700000,8.5047e-11,
-4800000,8.339e-11,
-4900000,8.2712e-11,
-5000000,8.272e-11,
-5100000,8.0761e-11,
-5200000,7.8784e-11,
-5300000,7.7766e-11,
-5400000,7.6056e-11,
-5500000,7.5229e-11,
-5600000,7.4862e-11,
-5700000,7.304e-11,
-5800000,7.1903e-11,
-5900000,7.1078e-11,
-6000000,7.0229e-11,
-5950000,7.0826e-11,
-5850000,7.1633e-11,
-5750000,7.2146e-11,
-5650000,7.3858e-11,
-5550000,7.4554e-11,
-5450000,7.5774e-11,
-5350000,7.6998e-11,
-5250000,7.8523e-11,
-5150000,7.9618e-11,
-5050000,8.1074e-11,
-4950000,8.236e-11,
-4850000,8.3135e-11,
-4750000,8.3882e-11,
-4650000,8.5908e-11,
-4550000,8.853e-11,
-4450000,9.1032e-11,
-4350000,9.373e-11,
-4250000,9.9494e-11,
-4150000,1.0653e-10,
-4050000,1.1671e-10,
-3950000,1.2905e-10,
-3850000,1.418e-10,
-3750000,1.5094e-10,
-3650000,1.5531e-10,
-3550000,1.5129e-10,
-3450000,1.4497e-10,
-3350000,1.3867e-10,
-3250000,1.3365e-10,
-3150000,1.3747e-10,
-3050000,1.5092e-10,
-2950000,1.8688e-10,
-2850000,2.4993e-10,
-2750000,3.2305e-10,
-2650000,3.7324e-10,
-2550000,3.785e-10,
-2450000,3.2857e-10,
-2350000,2.5581e-10,
-2250000,1.9418e-10,
-2150000,1.5988e-10,
-2050000,1.5327e-10,
-1950000,1.7751e-10,
-1850000,2.4008e-10,
-1750000,2.9252e-10,
-1650000,3.1482e-10,
-1550000,2.9753e-10,
-1450000,2.3988e-10,
-1350000,1.8454e-10,
-1250000,1.6562e-10,
-1150000,1.7111e-10,
-1050000,2.0415e-10,
-950000,2.7499e-10,
-850000,3.9436e-10,
-750000,4.3662e-10,
-650000,3.8588e-10,
-550000,2.6625e-10,
-450000,1.9457e-10,
-350000,1.6161e-10,
-250000,1.5135e-10,
-150000,1.464e-10,
-50000,1.5088e-10,
