General parameters:
Start time: 2024              1              4             16             57      22.450923
Finish time: 2024              1              4             17             22      14.441213
Dwell time (ms): 3750.000000
Source chamber pressure: Error-S
Differential chamber pressure: 1.06e-03
Sample chamber pressure: 1.62e-08
Example position (nm): -3118000.000000,-1218000.000000,-750000.000000
Rotation angle (udeg): 80000000.000000
==========
Instrument status: 
0:Data Directory:/icon/data/2023_12_defect1_repeat_5um_hbn_sub/
1:Sample:MoS2
2:Comments:no
3:PinholePlate:#C13
4:z_Zero:4200
5:Operator:djw77/nav31/kw570
==========
zscan inputs: 
z_sep:50000
z_range:0 -6000000
data_path:/icon/data/2023_12_defect1_repeat_5um_hbn_sub/
example_pos:-3118000 -1218000  -750000
N_dwell:250
sampling_period:15
make_plots:1
m1:0.9867
m2:-0.008
example_pos_norm_1:-3200000 -1225000  -750000
example_pos_norm_2:-3123000 -1263000  -750000
==========
Detector params:
Sampling period (ms): 15.000000
N dwell: 250.000000
Filament current (A): 1.540000
Filament emission (mA): 3.367332
Solenoid current (A): NaN
Solenoid shim current (A): NaN
Lens params:
0  685
1  300
2  125
3      -0.002
4       -0.01
5       0.012
6         0.8
7         2.1
8         2.8
9  3500
10  1400
11         0.85
12   0
==========
Data:
z(nm),I(A)
0,2.2391e-10,
-100000,1.9621e-10,
-200000,1.7276e-10,
-300000,1.6418e-10,
-400000,1.6786e-10,
-500000,1.9606e-10,
-600000,2.664e-10,
-700000,3.8413e-10,
-800000,4.5193e-10,
-900000,4.5994e-10,
-1000000,3.9948e-10,
-1100000,2.9218e-10,
-1200000,2.2317e-10,
-1300000,1.9093e-10,
-1400000,1.875e-10,
-1500000,2.1094e-10,
-1600000,2.4976e-10,
-1700000,2.7645e-10,
-1800000,2.7374e-10,
-1900000,2.4808e-10,
-2000000,2.0477e-10,
-2100000,1.7004e-10,
-2200000,1.5529e-10,
-2300000,1.632e-10,
-2400000,1.897e-10,
-2500000,2.349e-10,
-2600000,2.8201e-10,
-2700000,3.0586e-10,
-2800000,2.9633e-10,
-2900000,2.6178e-10,
-3000000,2.093e-10,
-3100000,1.6589e-10,
-3200000,1.4015e-10,
-3300000,1.2738e-10,
-3400000,1.2255e-10,
-3500000,1.2354e-10,
-3600000,1.2658e-10,
-3700000,1.2979e-10,
-3800000,1.311e-10,
-3900000,1.3044e-10,
-4000000,1.2669e-10,
-4100000,1.1898e-10,
-4200000,1.0958e-10,
-4300000,1.0187e-10,
-4400000,9.5798e-11,
-4500000,9.1179e-11,
-4600000,8.7835e-11,
-4700000,8.5917e-11,
-4800000,8.4286e-11,
-4900000,8.2187e-11,
-5000000,8.1208e-11,
-5100000,8.0884e-11,
-5200000,7.9434e-11,
-5300000,7.9165e-11,
-5400000,7.84e-11,
-5500000,7.834e-11,
-5600000,7.77e-11,
-5700000,7.6186e-11,
-5800000,7.556e-11,
-5900000,7.379e-11,
-6000000,7.3182e-11,
-5950000,7.4327e-11,
-5850000,7.433e-11,
-5750000,7.5718e-11,
-5650000,7.6334e-11,
-5550000,7.8372e-11,
-5450000,7.7952e-11,
-5350000,8.0058e-11,
-5250000,7.9824e-11,
-5150000,8.0749e-11,
-5050000,8.1065e-11,
-4950000,8.1554e-11,
-4850000,8.4326e-11,
-4750000,8.4095e-11,
-4650000,8.6201e-11,
-4550000,9.0129e-11,
-4450000,9.3456e-11,
-4350000,9.8155e-11,
-4250000,1.0587e-10,
-4150000,1.1311e-10,
-4050000,1.2318e-10,
-3950000,1.306e-10,
-3850000,1.3152e-10,
-3750000,1.3223e-10,
-3650000,1.2889e-10,
-3550000,1.2473e-10,
-3450000,1.2375e-10,
-3350000,1.2357e-10,
-3250000,1.3222e-10,
-3150000,1.4961e-10,
-3050000,1.819e-10,
-2950000,2.2876e-10,
-2850000,2.7568e-10,
-2750000,3.0546e-10,
-2650000,3.0063e-10,
-2550000,2.6449e-10,
-2450000,2.1714e-10,
-2350000,1.7739e-10,
-2250000,1.5742e-10,
-2150000,1.5828e-10,
-2050000,1.8069e-10,
-1950000,2.2565e-10,
-1850000,2.6395e-10,
-1750000,2.8031e-10,
-1650000,2.6996e-10,
-1550000,2.3378e-10,
-1450000,2.0003e-10,
-1350000,1.8701e-10,
-1250000,2.0048e-10,
-1150000,2.4454e-10,
-1050000,3.3422e-10,
-950000,4.2668e-10,
-850000,4.6201e-10,
-750000,4.3175e-10,
-650000,3.3215e-10,
-550000,2.3161e-10,
-450000,1.8068e-10,
-350000,1.6473e-10,
-250000,1.6784e-10,
-150000,1.8359e-10,
-50000,2.0791e-10,
