General parameters:
Start time: 2023             12             30             14             45      10.835053
Finish time: 2023             12             30             15              1      49.636941
Dwell time (ms): 3750.000000
Source chamber pressure: Error-S
Differential chamber pressure: 1.06e-03
Sample chamber pressure: 1.58e-08
Example position (nm): -3761000.000000,-806500.000000,-750000.000000
Rotation angle (udeg): 165000045.000000
==========
Instrument status: 
0:Data Directory:/icon/data/2023_12_defect1_repeat_5um_hbn_sub/
1:Sample:MoS2
2:Comments:no
3:PinholePlate:#C13
4:z_Zero:4200
5:Operator:djw77/nav31/kw570
==========
zscan inputs: 
z_sep:50000
z_range:0 -6000000
data_path:/icon/data/2023_12_defect1_repeat_5um_hbn_sub/
example_pos:-3761000  -806500  -750000
N_dwell:250
sampling_period:15
make_plots:1
m1:0.9867
m2:-0.008
example_pos_norm_1:-3725000  -700000  -750000
==========
Detector params:
Sampling period (ms): 15.000000
N dwell: 250.000000
Filament current (A): 1.540000
Filament emission (mA): 3.340314
Solenoid current (A): NaN
Solenoid shim current (A): NaN
Lens params:
0  685
1  300
2  125
3      -0.002
4       -0.01
5       0.012
6         0.8
7         2.1
8         2.8
9  3500
10  1400
11         0.85
12   0
==========
Data:
z(nm),I(A)
0,1.5979e-10,
-100000,1.5546e-10,
-200000,1.5729e-10,
-300000,1.6658e-10,
-400000,1.9181e-10,
-500000,2.3592e-10,
-600000,3.0475e-10,
-700000,3.3505e-10,
-800000,3.0183e-10,
-900000,2.375e-10,
-1000000,1.949e-10,
-1100000,1.679e-10,
-1200000,1.5296e-10,
-1300000,1.4599e-10,
-1400000,1.418e-10,
-1500000,1.3881e-10,
-1600000,1.3768e-10,
-1700000,1.3843e-10,
-1800000,1.3979e-10,
-1900000,1.5153e-10,
-2000000,1.6846e-10,
-2100000,1.926e-10,
-2200000,2.0876e-10,
-2300000,2.0797e-10,
-2400000,1.9368e-10,
-2500000,1.6638e-10,
-2600000,1.4346e-10,
-2700000,1.2929e-10,
-2800000,1.2407e-10,
-2900000,1.216e-10,
-3000000,1.2463e-10,
-3100000,1.2421e-10,
-3200000,1.238e-10,
-3300000,1.2176e-10,
-3400000,1.1721e-10,
-3500000,1.1174e-10,
-3600000,1.063e-10,
-3700000,1.0375e-10,
-3800000,1.0077e-10,
-3900000,1.008e-10,
-4000000,9.7993e-11,
-4100000,9.8482e-11,
-4200000,9.7162e-11,
-4300000,9.5834e-11,
-4400000,9.3876e-11,
-4500000,9.1224e-11,
-4600000,8.9181e-11,
-4700000,8.6731e-11,
-4800000,8.5156e-11,
-4900000,8.3202e-11,
-5000000,8.3141e-11,
-5100000,8.1786e-11,
-5200000,8.0442e-11,
-5300000,7.927e-11,
-5400000,7.9087e-11,
-5500000,7.9108e-11,
-5600000,7.6639e-11,
-5700000,7.7162e-11,
-5800000,7.6957e-11,
-5900000,7.5858e-11,
-6000000,7.5356e-11,
-5950000,7.5463e-11,
-5850000,7.6344e-11,
-5750000,7.6128e-11,
-5650000,7.7366e-11,
-5550000,7.7318e-11,
-5450000,7.8886e-11,
-5350000,7.9552e-11,
-5250000,7.9292e-11,
-5150000,8.1066e-11,
-5050000,8.198e-11,
-4950000,8.2809e-11,
-4850000,8.4082e-11,
-4750000,8.5626e-11,
-4650000,8.7448e-11,
-4550000,9.0677e-11,
-4450000,9.263e-11,
-4350000,9.4804e-11,
-4250000,9.8253e-11,
-4150000,9.958e-11,
-4050000,9.8767e-11,
-3950000,9.9325e-11,
-3850000,1.0072e-10,
-3750000,1.025e-10,
-3650000,1.0464e-10,
-3550000,1.0868e-10,
-3450000,1.135e-10,
-3350000,1.2e-10,
-3250000,1.2355e-10,
-3150000,1.2316e-10,
-3050000,1.228e-10,
-2950000,1.2211e-10,
-2850000,1.2169e-10,
-2750000,1.2502e-10,
-2650000,1.3451e-10,
-2550000,1.5341e-10,
-2450000,1.7984e-10,
-2350000,2.0269e-10,
-2250000,2.1008e-10,
-2150000,2.0332e-10,
-2050000,1.8225e-10,
-1950000,1.5744e-10,
-1850000,1.4357e-10,
-1750000,1.3822e-10,
-1650000,1.3706e-10,
-1550000,1.3773e-10,
-1450000,1.411e-10,
-1350000,1.4419e-10,
-1250000,1.4988e-10,
-1150000,1.6015e-10,
-1050000,1.7948e-10,
-950000,2.1351e-10,
-850000,2.6822e-10,
-750000,3.2502e-10,
-650000,3.2606e-10,
-550000,2.6913e-10,
-450000,2.0893e-10,
-350000,1.7602e-10,
-250000,1.5987e-10,
-150000,1.5306e-10,
-50000,1.5506e-10,
