General parameters:
Start time: 2024              1              6             17             37      59.854921
Finish time: 2024              1              6             18              2      57.168967
Dwell time (ms): 3750.000000
Source chamber pressure: Error-S
Differential chamber pressure: 1.05e-03
Sample chamber pressure: 1.60e-08
Example position (nm): -3693000.000000,-975000.000000,-750000.000000
Rotation angle (udeg): 144999895.000000
==========
Instrument status: 
0:Data Directory:/icon/data/2023_12_defect1_repeat_5um_hbn_sub/
1:Sample:MoS2
2:Comments:no
3:PinholePlate:#C13
4:z_Zero:4200
5:Operator:djw77/nav31/kw570
==========
zscan inputs: 
z_sep:50000
z_range:0 -6000000
data_path:/icon/data/2023_12_defect1_repeat_5um_hbn_sub/
example_pos:-3693000  -975000  -750000
N_dwell:250
sampling_period:15
make_plots:1
m1:0.9867
m2:-0.008
example_pos_norm_1:-3725000  -900000  -750000
example_pos_norm_2:-3736000  -982200  -750000
==========
Detector params:
Sampling period (ms): 15.000000
N dwell: 250.000000
Filament current (A): 1.540000
Filament emission (mA): 3.383064
Solenoid current (A): NaN
Solenoid shim current (A): NaN
Lens params:
0  685
1  300
2  125
3      -0.002
4       -0.01
5       0.012
6         0.8
7         2.1
8         2.8
9  3500
10  1400
11         0.85
12   0
==========
Data:
z(nm),I(A)
0,1.8459e-10,
-100000,1.7249e-10,
-200000,1.6455e-10,
-300000,1.6826e-10,
-400000,1.8342e-10,
-500000,2.211e-10,
-600000,2.9415e-10,
-700000,3.6527e-10,
-800000,3.7439e-10,
-900000,3.1119e-10,
-1000000,2.3703e-10,
-1100000,1.9138e-10,
-1200000,1.6969e-10,
-1300000,1.6532e-10,
-1400000,1.7651e-10,
-1500000,1.9969e-10,
-1600000,2.1975e-10,
-1700000,2.2223e-10,
-1800000,2.028e-10,
-1900000,1.7476e-10,
-2000000,1.5695e-10,
-2100000,1.4994e-10,
-2200000,1.5748e-10,
-2300000,1.7329e-10,
-2400000,1.9782e-10,
-2500000,2.2095e-10,
-2600000,2.3395e-10,
-2700000,2.2688e-10,
-2800000,2.036e-10,
-2900000,1.7498e-10,
-3000000,1.5345e-10,
-3100000,1.4174e-10,
-3200000,1.3468e-10,
-3300000,1.3362e-10,
-3400000,1.3382e-10,
-3500000,1.3782e-10,
-3600000,1.3842e-10,
-3700000,1.3553e-10,
-3800000,1.3192e-10,
-3900000,1.2652e-10,
-4000000,1.2083e-10,
-4100000,1.1152e-10,
-4200000,1.0651e-10,
-4300000,1.0084e-10,
-4400000,9.7445e-11,
-4500000,9.6164e-11,
-4600000,9.2753e-11,
-4700000,9.1174e-11,
-4800000,8.9582e-11,
-4900000,8.906e-11,
-5000000,8.6705e-11,
-5100000,8.5701e-11,
-5200000,8.5411e-11,
-5300000,8.3244e-11,
-5400000,8.2054e-11,
-5500000,8.0855e-11,
-5600000,7.921e-11,
-5700000,7.8571e-11,
-5800000,7.736e-11,
-5900000,7.6517e-11,
-6000000,7.637e-11,
-5950000,7.637e-11,
-5850000,7.6877e-11,
-5750000,7.834e-11,
-5650000,7.9414e-11,
-5550000,8.0335e-11,
-5450000,8.1562e-11,
-5350000,8.2801e-11,
-5250000,8.4706e-11,
-5150000,8.4859e-11,
-5050000,8.6695e-11,
-4950000,8.7438e-11,
-4850000,8.8089e-11,
-4750000,9.1273e-11,
-4650000,9.2495e-11,
-4550000,9.2953e-11,
-4450000,9.686e-11,
-4350000,9.9512e-11,
-4250000,1.0328e-10,
-4150000,1.0823e-10,
-4050000,1.1708e-10,
-3950000,1.2363e-10,
-3850000,1.2963e-10,
-3750000,1.3363e-10,
-3650000,1.3575e-10,
-3550000,1.3704e-10,
-3450000,1.3589e-10,
-3350000,1.3476e-10,
-3250000,1.3504e-10,
-3150000,1.3806e-10,
-3050000,1.4641e-10,
-2950000,1.6154e-10,
-2850000,1.8482e-10,
-2750000,2.1415e-10,
-2650000,2.3153e-10,
-2550000,2.319e-10,
-2450000,2.1246e-10,
-2350000,1.8783e-10,
-2250000,1.6577e-10,
-2150000,1.5263e-10,
-2050000,1.5132e-10,
-1950000,1.6245e-10,
-1850000,1.8795e-10,
-1750000,2.1267e-10,
-1650000,2.2481e-10,
-1550000,2.1401e-10,
-1450000,1.892e-10,
-1350000,1.7157e-10,
-1250000,1.6615e-10,
-1150000,1.7645e-10,
-1050000,2.0712e-10,
-950000,2.6308e-10,
-850000,3.4576e-10,
-750000,3.7833e-10,
-650000,3.4054e-10,
-550000,2.6051e-10,
-450000,2.0124e-10,
-350000,1.7528e-10,
-250000,1.6496e-10,
-150000,1.6816e-10,
-50000,1.7671e-10,
