General parameters:
Start time: 2024              1              8             14             52      22.623001
Finish time: 2024              1              8             15             17       16.73513
Dwell time (ms): 3750.000000
Source chamber pressure: Error-S
Differential chamber pressure: 1.03e-03
Sample chamber pressure: 1.59e-08
Example position (nm): -3708000.000000,-939000.000000,-750000.000000
Rotation angle (udeg): 150000050.000000
==========
Instrument status: 
0:Data Directory:/icon/data/2023_12_defect1_repeat_5um_hbn_sub/
1:Sample:MoS2
2:Comments:no
3:PinholePlate:#C13
4:z_Zero:4200
5:Operator:djw77/nav31/kw570
==========
zscan inputs: 
z_sep:50000
z_range:0 -6000000
data_path:/icon/data/2023_12_defect1_repeat_5um_hbn_sub/
example_pos:-3708000  -939000  -750000
N_dwell:250
sampling_period:15
make_plots:1
m1:0.9867
m2:-0.008
example_pos_norm_1:-3725000  -850000  -750000
example_pos_norm_2:-3754000  -948100  -750000
==========
Detector params:
Sampling period (ms): 15.000000
N dwell: 250.000000
Filament current (A): 1.540000
Filament emission (mA): 3.396744
Solenoid current (A): NaN
Solenoid shim current (A): NaN
Lens params:
0  685
1  300
2  125
3      -0.002
4       -0.01
5       0.012
6         0.8
7         2.1
8         2.8
9  3500
10  1400
11         0.85
12   0
==========
Data:
z(nm),I(A)
0,1.8661e-10,
-100000,1.7141e-10,
-200000,1.6459e-10,
-300000,1.6626e-10,
-400000,1.8616e-10,
-500000,2.2751e-10,
-600000,3.0268e-10,
-700000,3.6301e-10,
-800000,3.5751e-10,
-900000,2.8383e-10,
-1000000,2.2001e-10,
-1100000,1.7976e-10,
-1200000,1.6113e-10,
-1300000,1.5418e-10,
-1400000,1.579e-10,
-1500000,1.6769e-10,
-1600000,1.7344e-10,
-1700000,1.7032e-10,
-1800000,1.6013e-10,
-1900000,1.4845e-10,
-2000000,1.4291e-10,
-2100000,1.4301e-10,
-2200000,1.4449e-10,
-2300000,1.4683e-10,
-2400000,1.5127e-10,
-2500000,1.5253e-10,
-2600000,1.5023e-10,
-2700000,1.4904e-10,
-2800000,1.4465e-10,
-2900000,1.4299e-10,
-3000000,1.4329e-10,
-3100000,1.4247e-10,
-3200000,1.3934e-10,
-3300000,1.348e-10,
-3400000,1.2867e-10,
-3500000,1.2183e-10,
-3600000,1.1571e-10,
-3700000,1.1172e-10,
-3800000,1.0701e-10,
-3900000,1.0546e-10,
-4000000,1.0445e-10,
-4100000,1.0379e-10,
-4200000,1.0266e-10,
-4300000,1.0233e-10,
-4400000,1.0186e-10,
-4500000,9.9857e-11,
-4600000,9.8085e-11,
-4700000,9.5086e-11,
-4800000,9.1302e-11,
-4900000,8.7811e-11,
-5000000,8.5563e-11,
-5100000,8.2891e-11,
-5200000,7.9741e-11,
-5300000,7.9054e-11,
-5400000,7.7837e-11,
-5500000,7.613e-11,
-5600000,7.6022e-11,
-5700000,7.4323e-11,
-5800000,7.3288e-11,
-5900000,7.2942e-11,
-6000000,7.2567e-11,
-5950000,7.2647e-11,
-5850000,7.3786e-11,
-5750000,7.4261e-11,
-5650000,7.4868e-11,
-5550000,7.6385e-11,
-5450000,7.6487e-11,
-5350000,7.7682e-11,
-5250000,7.9814e-11,
-5150000,8.1778e-11,
-5050000,8.5469e-11,
-4950000,8.612e-11,
-4850000,8.9664e-11,
-4750000,9.2869e-11,
-4650000,9.6668e-11,
-4550000,9.9714e-11,
-4450000,1.0114e-10,
-4350000,1.0201e-10,
-4250000,1.0268e-10,
-4150000,1.0397e-10,
-4050000,1.0378e-10,
-3950000,1.0559e-10,
-3850000,1.0678e-10,
-3750000,1.1054e-10,
-3650000,1.1447e-10,
-3550000,1.2028e-10,
-3450000,1.2521e-10,
-3350000,1.3145e-10,
-3250000,1.3699e-10,
-3150000,1.3966e-10,
-3050000,1.4202e-10,
-2950000,1.4262e-10,
-2850000,1.4286e-10,
-2750000,1.4702e-10,
-2650000,1.5061e-10,
-2550000,1.5367e-10,
-2450000,1.527e-10,
-2350000,1.5031e-10,
-2250000,1.4731e-10,
-2150000,1.4374e-10,
-2050000,1.4232e-10,
-1950000,1.454e-10,
-1850000,1.5353e-10,
-1750000,1.6556e-10,
-1650000,1.7209e-10,
-1550000,1.7241e-10,
-1450000,1.6398e-10,
-1350000,1.5595e-10,
-1250000,1.5623e-10,
-1150000,1.6685e-10,
-1050000,1.9545e-10,
-950000,2.4608e-10,
-850000,3.2141e-10,
-750000,3.7052e-10,
-650000,3.4974e-10,
-550000,2.6868e-10,
-450000,2.0604e-10,
-350000,1.7599e-10,
-250000,1.6545e-10,
-150000,1.6653e-10,
-50000,1.7692e-10,
