General parameters:
Start time: 2024              1              6             16              0       12.15096
Finish time: 2024              1              6             16             25       3.472911
Dwell time (ms): 3750.000000
Source chamber pressure: Error-S
Differential chamber pressure: 1.04e-03
Sample chamber pressure: 1.60e-08
Example position (nm): -3586000.000000,-1088000.000000,-750000.000000
Rotation angle (udeg): 129999910.000000
==========
Instrument status: 
0:Data Directory:/icon/data/2023_12_defect1_repeat_5um_hbn_sub/
1:Sample:MoS2
2:Comments:no
3:PinholePlate:#C13
4:z_Zero:4200
5:Operator:djw77/nav31/kw570
==========
zscan inputs: 
z_sep:50000
z_range:0 -6000000
data_path:/icon/data/2023_12_defect1_repeat_5um_hbn_sub/
example_pos:-3586000 -1088000  -750000
N_dwell:250
sampling_period:15
make_plots:1
m1:0.9867
m2:-0.008
example_pos_norm_1:-3625000 -1025000  -750000
example_pos_norm_2:-3626000 -1108000  -750000
==========
Detector params:
Sampling period (ms): 15.000000
N dwell: 250.000000
Filament current (A): 1.540000
Filament emission (mA): 3.381696
Solenoid current (A): NaN
Solenoid shim current (A): NaN
Lens params:
0  685
1  300
2  125
3      -0.002
4       -0.01
5       0.012
6         0.8
7         2.1
8         2.8
9  3500
10  1400
11         0.85
12   0
==========
Data:
z(nm),I(A)
0,1.5558e-10,
-100000,1.5378e-10,
-200000,1.5361e-10,
-300000,1.5889e-10,
-400000,1.7507e-10,
-500000,2.1278e-10,
-600000,2.8036e-10,
-700000,3.7372e-10,
-800000,4.1327e-10,
-900000,3.7346e-10,
-1000000,2.7903e-10,
-1100000,2.1477e-10,
-1200000,1.8141e-10,
-1300000,1.7469e-10,
-1400000,1.9166e-10,
-1500000,2.296e-10,
-1600000,2.6339e-10,
-1700000,2.6612e-10,
-1800000,2.4261e-10,
-1900000,1.9942e-10,
-2000000,1.6379e-10,
-2100000,1.496e-10,
-2200000,1.5167e-10,
-2300000,1.6434e-10,
-2400000,1.8549e-10,
-2500000,2.0383e-10,
-2600000,2.1171e-10,
-2700000,2.0257e-10,
-2800000,1.8165e-10,
-2900000,1.6168e-10,
-3000000,1.4455e-10,
-3100000,1.3509e-10,
-3200000,1.3067e-10,
-3300000,1.2801e-10,
-3400000,1.2525e-10,
-3500000,1.216e-10,
-3600000,1.1876e-10,
-3700000,1.162e-10,
-3800000,1.1254e-10,
-3900000,1.0994e-10,
-4000000,1.0617e-10,
-4100000,1.0373e-10,
-4200000,1.0282e-10,
-4300000,1.0221e-10,
-4400000,1.0227e-10,
-4500000,1.0178e-10,
-4600000,1.0021e-10,
-4700000,9.8128e-11,
-4800000,9.6066e-11,
-4900000,9.4535e-11,
-5000000,9.145e-11,
-5100000,8.8216e-11,
-5200000,8.5755e-11,
-5300000,8.3937e-11,
-5400000,8.2649e-11,
-5500000,7.9283e-11,
-5600000,7.9079e-11,
-5700000,7.7356e-11,
-5800000,7.7538e-11,
-5900000,7.6659e-11,
-6000000,7.7171e-11,
-5950000,7.7654e-11,
-5850000,7.7668e-11,
-5750000,7.8186e-11,
-5650000,7.8392e-11,
-5550000,7.9782e-11,
-5450000,8.1256e-11,
-5350000,8.2731e-11,
-5250000,8.4841e-11,
-5150000,8.7578e-11,
-5050000,8.9717e-11,
-4950000,9.3283e-11,
-4850000,9.553e-11,
-4750000,9.8612e-11,
-4650000,9.8831e-11,
-4550000,1.0126e-10,
-4450000,1.0204e-10,
-4350000,1.0153e-10,
-4250000,1.0405e-10,
-4150000,1.044e-10,
-4050000,1.0585e-10,
-3950000,1.0777e-10,
-3850000,1.1091e-10,
-3750000,1.1396e-10,
-3650000,1.1833e-10,
-3550000,1.2015e-10,
-3450000,1.2456e-10,
-3350000,1.2715e-10,
-3250000,1.2968e-10,
-3150000,1.3285e-10,
-3050000,1.3982e-10,
-2950000,1.5125e-10,
-2850000,1.7102e-10,
-2750000,1.911e-10,
-2650000,2.0618e-10,
-2550000,2.0784e-10,
-2450000,1.9684e-10,
-2350000,1.7647e-10,
-2250000,1.5882e-10,
-2150000,1.5009e-10,
-2050000,1.5304e-10,
-1950000,1.7492e-10,
-1850000,2.1888e-10,
-1750000,2.5351e-10,
-1650000,2.6704e-10,
-1550000,2.5098e-10,
-1450000,2.1326e-10,
-1350000,1.832e-10,
-1250000,1.7398e-10,
-1150000,1.9246e-10,
-1050000,2.3598e-10,
-950000,3.1521e-10,
-850000,3.9965e-10,
-750000,4.0528e-10,
-650000,3.4027e-10,
-550000,2.4986e-10,
-450000,1.9235e-10,
-350000,1.6561e-10,
-250000,1.5567e-10,
-150000,1.5271e-10,
-50000,1.5332e-10,
