General parameters:
Start time: 2024              1             10             15             12      53.112424
Finish time: 2024              1             10             15             37      50.239962
Dwell time (ms): 3750.000000
Source chamber pressure: Error-S
Differential chamber pressure: 1.01e-03
Sample chamber pressure: 1.59e-08
Example position (nm): -3160000.000000,-1224000.000000,-750000.000000
Rotation angle (udeg): 82500015.000000
==========
Instrument status: 
0:Data Directory:/icon/data/2023_12_defect1_repeat_5um_hbn_sub/
1:Sample:MoS2
2:Comments:no
3:PinholePlate:#C13
4:z_Zero:4200
5:Operator:djw77/nav31/kw570
==========
zscan inputs: 
z_sep:50000
z_range:0 -6000000
data_path:/icon/data/2023_12_defect1_repeat_5um_hbn_sub/
example_pos:-3160000 -1224000  -750000
N_dwell:250
sampling_period:15
make_plots:1
m1:0.9867
m2:-0.008
example_pos_norm_1:-3225000 -1225000  -750000
example_pos_norm_2:-3167000 -1267000  -750000
==========
Detector params:
Sampling period (ms): 15.000000
N dwell: 250.000000
Filament current (A): 1.540000
Filament emission (mA): 3.417264
Solenoid current (A): NaN
Solenoid shim current (A): NaN
Lens params:
0  685
1  300
2  125
3      -0.002
4       -0.01
5       0.012
6         0.8
7         2.1
8         2.8
9  3500
10  1400
11         0.85
12   0
==========
Data:
z(nm),I(A)
0,2.2756e-10,
-100000,1.9233e-10,
-200000,1.6779e-10,
-300000,1.5747e-10,
-400000,1.6551e-10,
-500000,2.0529e-10,
-600000,3.0564e-10,
-700000,4.6872e-10,
-800000,5.444e-10,
-900000,5.287e-10,
-1000000,4.3102e-10,
-1100000,2.8265e-10,
-1200000,2.1077e-10,
-1300000,1.84e-10,
-1400000,1.9016e-10,
-1500000,2.3295e-10,
-1600000,2.9534e-10,
-1700000,3.3258e-10,
-1800000,3.2818e-10,
-1900000,2.8736e-10,
-2000000,2.1976e-10,
-2100000,1.6858e-10,
-2200000,1.547e-10,
-2300000,1.713e-10,
-2400000,2.1933e-10,
-2500000,2.8991e-10,
-2600000,3.6404e-10,
-2700000,3.9363e-10,
-2800000,3.803e-10,
-2900000,3.2001e-10,
-3000000,2.4169e-10,
-3100000,1.7331e-10,
-3200000,1.3881e-10,
-3300000,1.2437e-10,
-3400000,1.2292e-10,
-3500000,1.2877e-10,
-3600000,1.3684e-10,
-3700000,1.4455e-10,
-3800000,1.5163e-10,
-3900000,1.5214e-10,
-4000000,1.4818e-10,
-4100000,1.3544e-10,
-4200000,1.1879e-10,
-4300000,1.0462e-10,
-4400000,9.5028e-11,
-4500000,8.8175e-11,
-4600000,8.5736e-11,
-4700000,8.2027e-11,
-4800000,8.1057e-11,
-4900000,7.9739e-11,
-5000000,7.8882e-11,
-5100000,7.7553e-11,
-5200000,7.7443e-11,
-5300000,7.7531e-11,
-5400000,7.7018e-11,
-5500000,7.6738e-11,
-5600000,7.6442e-11,
-5700000,7.5913e-11,
-5800000,7.3954e-11,
-5900000,7.2076e-11,
-6000000,7.0212e-11,
-5950000,7.0839e-11,
-5850000,7.295e-11,
-5750000,7.4848e-11,
-5650000,7.5929e-11,
-5550000,7.5602e-11,
-5450000,7.7686e-11,
-5350000,7.828e-11,
-5250000,7.754e-11,
-5150000,7.8198e-11,
-5050000,7.8634e-11,
-4950000,7.9976e-11,
-4850000,8.021e-11,
-4750000,8.2341e-11,
-4650000,8.2401e-11,
-4550000,8.6617e-11,
-4450000,9.2112e-11,
-4350000,9.8898e-11,
-4250000,1.0999e-10,
-4150000,1.2601e-10,
-4050000,1.4149e-10,
-3950000,1.5029e-10,
-3850000,1.5401e-10,
-3750000,1.4856e-10,
-3650000,1.4293e-10,
-3550000,1.339e-10,
-3450000,1.2648e-10,
-3350000,1.232e-10,
-3250000,1.3067e-10,
-3150000,1.5107e-10,
-3050000,1.9669e-10,
-2950000,2.7123e-10,
-2850000,3.4641e-10,
-2750000,3.8894e-10,
-2650000,3.8625e-10,
-2550000,3.395e-10,
-2450000,2.6252e-10,
-2350000,1.9668e-10,
-2250000,1.6233e-10,
-2150000,1.5729e-10,
-2050000,1.8381e-10,
-1950000,2.4952e-10,
-1850000,3.0874e-10,
-1750000,3.3385e-10,
-1650000,3.2211e-10,
-1550000,2.7022e-10,
-1450000,2.1112e-10,
-1350000,1.8386e-10,
-1250000,1.909e-10,
-1150000,2.342e-10,
-1050000,3.3294e-10,
-950000,4.8937e-10,
-850000,5.4918e-10,
-750000,5.266e-10,
-650000,4.1088e-10,
-550000,2.5575e-10,
-450000,1.8177e-10,
-350000,1.6006e-10,
-250000,1.6043e-10,
-150000,1.7721e-10,
-50000,2.0749e-10,
