General parameters:
Start time: 2023             10             19             16              5      16.834967
Finish time: 2023             10             19             16             30      11.591401
Dwell time (ms): 3750.000000
Source chamber pressure: Error-S
Differential chamber pressure: 7.96e-07
Sample chamber pressure: 1.89e-08
Example position (nm): -4011000.000000,-1312000.000000,-1000000.000000
Rotation angle (udeg): 95000075.000000
==========
Instrument status: 
0:Data Directory:/icon/data/2023_09_defect_MoS2_5um_hbn_sub/
1:Sample:MoS2
2:Comments:no
3:PinholePlate:#C13
4:z_Zero:4200
5:Operator:djw77/nav31/kw570
==========
zscan inputs: 
z_sep:50000
z_range:0 -6000000
data_path:/icon/data/2023_09_defect_MoS2_5um_hbn_sub/
example_pos:-4011000 -1312000 -1000000
N_dwell:250
sampling_period:15
make_plots:1
m1:0.98976
m2:-0.0074577
example_pos_norm_1:-4016000 -1290000 -1000000
example_pos_norm_2:-4048000 -1310000 -1000000
==========
Detector params:
Sampling period (ms): 15.000000
N dwell: 250.000000
Filament current (A): 1.540000
Filament emission (mA): 2.087568
Solenoid current (A): NaN
Solenoid shim current (A): NaN
Lens params:
0  685
1  300
2  125
3      -0.002
4       -0.01
5       0.012
6         0.8
7         2.1
8         2.8
9  3000
10  1400
11         0.85
12   0
==========
Data:
z(nm),I(A)
0,1.597e-11,
-100000,1.59e-11,
-200000,1.6275e-11,
-300000,1.7617e-11,
-400000,2.0287e-11,
-500000,2.5295e-11,
-600000,3.3564e-11,
-700000,3.9829e-11,
-800000,3.8742e-11,
-900000,3.0364e-11,
-1000000,2.4538e-11,
-1100000,2.068e-11,
-1200000,2.0026e-11,
-1300000,2.1946e-11,
-1400000,2.7121e-11,
-1500000,3.252e-11,
-1600000,3.3811e-11,
-1700000,3.148e-11,
-1800000,2.5997e-11,
-1900000,2.1326e-11,
-2000000,1.8788e-11,
-2100000,1.8065e-11,
-2200000,1.965e-11,
-2300000,2.2945e-11,
-2400000,2.5782e-11,
-2500000,2.7061e-11,
-2600000,2.5563e-11,
-2700000,2.2119e-11,
-2800000,1.8964e-11,
-2900000,1.6687e-11,
-3000000,1.4777e-11,
-3100000,1.3684e-11,
-3200000,1.3198e-11,
-3300000,1.2448e-11,
-3400000,1.2259e-11,
-3500000,1.1742e-11,
-3600000,1.1612e-11,
-3700000,1.1121e-11,
-3800000,1.0577e-11,
-3900000,1.0258e-11,
-4000000,9.7232e-12,
-4100000,9.8376e-12,
-4200000,9.5712e-12,
-4300000,9.6656e-12,
-4400000,9.2348e-12,
-4500000,9.0952e-12,
-4600000,9.1036e-12,
-4700000,7.982e-12,
-4800000,8.0192e-12,
-4900000,8.1748e-12,
-5000000,7.3556e-12,
-5100000,7.2776e-12,
-5200000,7.1424e-12,
-5300000,7.02e-12,
-5400000,7.1208e-12,
-5500000,7.4256e-12,
-5600000,7.706e-12,
-5700000,7.4596e-12,
-5800000,6.5944e-12,
-5900000,6.5188e-12,
-6000000,6.2332e-12,
-5950000,6.0472e-12,
-5850000,6.4904e-12,
-5750000,6.7412e-12,
-5650000,7.5464e-12,
-5550000,7.9552e-12,
-5450000,7.692e-12,
-5350000,6.928e-12,
-5250000,7.1756e-12,
-5150000,7.5012e-12,
-5050000,7.5696e-12,
-4950000,7.7236e-12,
-4850000,8.2216e-12,
-4750000,8.0808e-12,
-4650000,8.4244e-12,
-4550000,8.8152e-12,
-4450000,9.1184e-12,
-4350000,9.1524e-12,
-4250000,9.7616e-12,
-4150000,9.96e-12,
-4050000,9.7092e-12,
-3950000,1.0376e-11,
-3850000,1.0875e-11,
-3750000,1.1242e-11,
-3650000,1.1858e-11,
-3550000,1.1902e-11,
-3450000,1.2143e-11,
-3350000,1.2753e-11,
-3250000,1.3529e-11,
-3150000,1.4031e-11,
-3050000,1.4654e-11,
-2950000,1.5646e-11,
-2850000,1.8255e-11,
-2750000,2.129e-11,
-2650000,2.4729e-11,
-2550000,2.737e-11,
-2450000,2.7531e-11,
-2350000,2.4902e-11,
-2250000,2.1588e-11,
-2150000,1.9982e-11,
-2050000,1.9069e-11,
-1950000,2.037e-11,
-1850000,2.4118e-11,
-1750000,3.0315e-11,
-1650000,3.3471e-11,
-1550000,3.4304e-11,
-1450000,3.0279e-11,
-1350000,2.4786e-11,
-1250000,2.1114e-11,
-1150000,2.0612e-11,
-1050000,2.2735e-11,
-950000,2.7835e-11,
-850000,3.4936e-11,
-750000,4.1295e-11,
-650000,3.872e-11,
-550000,3.0059e-11,
-450000,2.3426e-11,
-350000,1.943e-11,
-250000,1.7678e-11,
-150000,1.6984e-11,
-50000,1.6954e-11,
