General parameters:
Start time: 2023             10              9             21              1      16.808921
Finish time: 2023             10              9             21             26       11.75664
Dwell time (ms): 3750.000000
Source chamber pressure: Error-S
Differential chamber pressure: 7.78e-07
Sample chamber pressure: 2.07e-08
Example position (nm): -3820000.000000,-1436000.000000,-1000000.000000
Rotation angle (udeg): 79999850.000000
==========
Instrument status: 
0:Data Directory:/icon/data/2023_09_defect_MoS2_5um_hbn_sub/
1:Sample:MoS2
2:Comments:no
3:PinholePlate:#C13
4:z_Zero:4200
5:Operator:djw77/nav31/kw570
==========
zscan inputs: 
z_sep:50000
z_range:0 -6000000
data_path:/icon/data/2023_09_defect_MoS2_5um_hbn_sub/
example_pos:-3820000 -1436000 -1000000
N_dwell:250
sampling_period:15
make_plots:1
m1:0.98976
m2:-0.0074577
example_pos_norm_1:-3830000 -1416000 -1000000
example_pos_norm_2:-3860000 -1450000 -1000000
==========
Detector params:
Sampling period (ms): 15.000000
N dwell: 250.000000
Filament current (A): 1.540000
Filament emission (mA): 1.787976
Solenoid current (A): NaN
Solenoid shim current (A): NaN
Lens params:
0  685
1  300
2  125
3      -0.002
4       -0.01
5       0.012
6         0.8
7         2.1
8         2.8
9  3000
10  1400
11         0.85
12   0
==========
Data:
z(nm),I(A)
0,2.2966e-11,
-100000,2.2817e-11,
-200000,2.3696e-11,
-300000,2.442e-11,
-400000,2.8254e-11,
-500000,3.3795e-11,
-600000,4.2952e-11,
-700000,5.6869e-11,
-800000,5.9358e-11,
-900000,5.2364e-11,
-1000000,4.1898e-11,
-1100000,3.3558e-11,
-1200000,2.8747e-11,
-1300000,2.8018e-11,
-1400000,2.8895e-11,
-1500000,3.0071e-11,
-1600000,2.9309e-11,
-1700000,2.6839e-11,
-1800000,2.4692e-11,
-1900000,2.3551e-11,
-2000000,2.2992e-11,
-2100000,2.36e-11,
-2200000,2.4283e-11,
-2300000,2.5979e-11,
-2400000,2.5148e-11,
-2500000,2.4228e-11,
-2600000,2.2735e-11,
-2700000,2.0879e-11,
-2800000,2.0433e-11,
-2900000,1.9763e-11,
-3000000,2.0144e-11,
-3100000,2.0634e-11,
-3200000,2.0354e-11,
-3300000,1.9702e-11,
-3400000,1.8699e-11,
-3500000,1.8255e-11,
-3600000,1.701e-11,
-3700000,1.5763e-11,
-3800000,1.4782e-11,
-3900000,1.4567e-11,
-4000000,1.4265e-11,
-4100000,1.3676e-11,
-4200000,1.3223e-11,
-4300000,1.3637e-11,
-4400000,1.3829e-11,
-4500000,1.3052e-11,
-4600000,1.2516e-11,
-4700000,1.2469e-11,
-4800000,1.2516e-11,
-4900000,1.2138e-11,
-5000000,1.2193e-11,
-5100000,1.1983e-11,
-5200000,1.1592e-11,
-5300000,1.19e-11,
-5400000,1.1651e-11,
-5500000,1.1846e-11,
-5600000,1.1712e-11,
-5700000,1.1596e-11,
-5800000,1.136e-11,
-5900000,1.0663e-11,
-6000000,1.0757e-11,
-5950000,1.0986e-11,
-5850000,1.1006e-11,
-5750000,1.1556e-11,
-5650000,1.1631e-11,
-5550000,1.188e-11,
-5450000,1.2422e-11,
-5350000,1.152e-11,
-5250000,1.183e-11,
-5150000,1.1908e-11,
-5050000,1.2018e-11,
-4950000,1.2285e-11,
-4850000,1.2647e-11,
-4750000,1.2541e-11,
-4650000,1.2734e-11,
-4550000,1.2788e-11,
-4450000,1.3367e-11,
-4350000,1.3547e-11,
-4250000,1.3843e-11,
-4150000,1.3527e-11,
-4050000,1.4143e-11,
-3950000,1.3955e-11,
-3850000,1.4712e-11,
-3750000,1.5045e-11,
-3650000,1.6308e-11,
-3550000,1.7648e-11,
-3450000,1.8489e-11,
-3350000,1.9242e-11,
-3250000,2.0559e-11,
-3150000,2.0937e-11,
-3050000,2.0826e-11,
-2950000,2.0171e-11,
-2850000,2.0538e-11,
-2750000,2.0951e-11,
-2650000,2.224e-11,
-2550000,2.375e-11,
-2450000,2.514e-11,
-2350000,2.5931e-11,
-2250000,2.5922e-11,
-2150000,2.4022e-11,
-2050000,2.3438e-11,
-1950000,2.3512e-11,
-1850000,2.4363e-11,
-1750000,2.5992e-11,
-1650000,2.8508e-11,
-1550000,2.9936e-11,
-1450000,3.0226e-11,
-1350000,2.8638e-11,
-1250000,2.8187e-11,
-1150000,3.0385e-11,
-1050000,3.796e-11,
-950000,4.5526e-11,
-850000,5.6903e-11,
-750000,5.8783e-11,
-650000,5.0046e-11,
-550000,3.8397e-11,
-450000,3.1074e-11,
-350000,2.6282e-11,
-250000,2.4253e-11,
-150000,2.3884e-11,
-50000,2.333e-11,
