General parameters:
Start time: 2023             10             18             17             15      15.886909
Finish time: 2023             10             18             17             40       8.202589
Dwell time (ms): 3750.000000
Source chamber pressure: Error-S
Differential chamber pressure: 8.00e-07
Sample chamber pressure: 1.91e-08
Example position (nm): -4208000.000000,-1076000.000000,-1000000.000000
Rotation angle (udeg): 115000050.000000
==========
Instrument status: 
0:Data Directory:/icon/data/2023_09_defect_MoS2_5um_hbn_sub/
1:Sample:MoS2
2:Comments:no
3:PinholePlate:#C13
4:z_Zero:4200
5:Operator:djw77/nav31/kw570
==========
zscan inputs: 
z_sep:50000
z_range:0 -6000000
data_path:/icon/data/2023_09_defect_MoS2_5um_hbn_sub/
example_pos:-4208000 -1076000 -1000000
N_dwell:250
sampling_period:15
make_plots:1
m1:0.98976
m2:-0.0074577
example_pos_norm_1:-4205000 -1050000 -1000000
example_pos_norm_2:-4245000 -1070000 -1000000
==========
Detector params:
Sampling period (ms): 15.000000
N dwell: 250.000000
Filament current (A): 1.540000
Filament emission (mA): 2.074230
Solenoid current (A): NaN
Solenoid shim current (A): NaN
Lens params:
0  685
1  300
2  125
3      -0.002
4       -0.01
5       0.012
6         0.8
7         2.1
8         2.8
9  3000
10  1400
11         0.85
12   0
==========
Data:
z(nm),I(A)
0,1.8726e-11,
-100000,1.8351e-11,
-200000,1.8676e-11,
-300000,2.0237e-11,
-400000,2.3025e-11,
-500000,3.0149e-11,
-600000,3.7352e-11,
-700000,3.8484e-11,
-800000,3.1868e-11,
-900000,2.523e-11,
-1000000,2.1101e-11,
-1100000,1.8399e-11,
-1200000,1.7707e-11,
-1300000,1.7533e-11,
-1400000,1.8319e-11,
-1500000,1.9603e-11,
-1600000,1.9528e-11,
-1700000,1.8411e-11,
-1800000,1.7201e-11,
-1900000,1.6379e-11,
-2000000,1.6011e-11,
-2100000,1.5982e-11,
-2200000,1.6058e-11,
-2300000,1.6552e-11,
-2400000,1.6764e-11,
-2500000,1.696e-11,
-2600000,1.6064e-11,
-2700000,1.6326e-11,
-2800000,1.5527e-11,
-2900000,1.494e-11,
-3000000,1.4765e-11,
-3100000,1.4346e-11,
-3200000,1.3649e-11,
-3300000,1.3172e-11,
-3400000,1.1897e-11,
-3500000,1.2028e-11,
-3600000,1.11e-11,
-3700000,1.0445e-11,
-3800000,1.0522e-11,
-3900000,1.0235e-11,
-4000000,9.852e-12,
-4100000,9.8376e-12,
-4200000,9.5912e-12,
-4300000,9.7392e-12,
-4400000,8.518e-12,
-4500000,8.2536e-12,
-4600000,7.6796e-12,
-4700000,7.4436e-12,
-4800000,7.9548e-12,
-4900000,7.1828e-12,
-5000000,7.0324e-12,
-5100000,6.8936e-12,
-5200000,6.6632e-12,
-5300000,6.3976e-12,
-5400000,6.3504e-12,
-5500000,7.5024e-12,
-5600000,7.2052e-12,
-5700000,6.8852e-12,
-5800000,5.7468e-12,
-5900000,6.0072e-12,
-6000000,5.6644e-12,
-5950000,5.62e-12,
-5850000,5.7276e-12,
-5750000,6.164e-12,
-5650000,7.0076e-12,
-5550000,7.1476e-12,
-5450000,7.0824e-12,
-5350000,6.3656e-12,
-5250000,6.504e-12,
-5150000,6.5252e-12,
-5050000,6.7156e-12,
-4950000,7.1184e-12,
-4850000,7.3132e-12,
-4750000,7.3456e-12,
-4650000,7.59e-12,
-4550000,7.9344e-12,
-4450000,8.1492e-12,
-4350000,8.928e-12,
-4250000,9.3056e-12,
-4150000,9.6964e-12,
-4050000,9.5844e-12,
-3950000,9.8428e-12,
-3850000,1.0457e-11,
-3750000,1.0556e-11,
-3650000,1.068e-11,
-3550000,1.1128e-11,
-3450000,1.1646e-11,
-3350000,1.2318e-11,
-3250000,1.2776e-11,
-3150000,1.4437e-11,
-3050000,1.4762e-11,
-2950000,1.5336e-11,
-2850000,1.5517e-11,
-2750000,1.5495e-11,
-2650000,1.5827e-11,
-2550000,1.569e-11,
-2450000,1.6864e-11,
-2350000,1.6327e-11,
-2250000,1.6041e-11,
-2150000,1.5604e-11,
-2050000,1.5646e-11,
-1950000,1.5583e-11,
-1850000,1.5756e-11,
-1750000,1.6989e-11,
-1650000,1.8593e-11,
-1550000,1.9032e-11,
-1450000,1.8474e-11,
-1350000,1.7647e-11,
-1250000,1.7327e-11,
-1150000,1.6889e-11,
-1050000,1.9175e-11,
-950000,2.2185e-11,
-850000,2.8027e-11,
-750000,3.5832e-11,
-650000,3.7703e-11,
-550000,3.259e-11,
-450000,2.528e-11,
-350000,1.9987e-11,
-250000,1.7761e-11,
-150000,1.7159e-11,
-50000,1.7931e-11,
