General parameters:
Start time: 2023             10             10             17             43       2.698946
Finish time: 2023             10             10             18              7      58.201569
Dwell time (ms): 3750.000000
Source chamber pressure: Error-S
Differential chamber pressure: 7.79e-07
Sample chamber pressure: 2.25e-08
Example position (nm): -3520000.000000,-1527000.000000,-1000000.000000
Rotation angle (udeg): 60000100.000000
==========
Instrument status: 
0:Data Directory:/icon/data/2023_09_defect_MoS2_5um_hbn_sub/
1:Sample:MoS2
2:Comments:no
3:PinholePlate:#C13
4:z_Zero:4200
5:Operator:djw77/nav31/kw570
==========
zscan inputs: 
z_sep:50000
z_range:0 -6000000
data_path:/icon/data/2023_09_defect_MoS2_5um_hbn_sub/
example_pos:-3520000 -1527000 -1000000
N_dwell:250
sampling_period:15
make_plots:1
m1:0.98976
m2:-0.0074577
example_pos_norm_1:-3540000 -1510000 -1000000
example_pos_norm_2:-3555000 -1540000 -1000000
==========
Detector params:
Sampling period (ms): 15.000000
N dwell: 250.000000
Filament current (A): 1.540000
Filament emission (mA): 1.776006
Solenoid current (A): NaN
Solenoid shim current (A): NaN
Lens params:
0  685
1  300
2  125
3      -0.002
4       -0.01
5       0.012
6         0.8
7         2.1
8         2.8
9  3000
10  1400
11         0.85
12   0
==========
Data:
z(nm),I(A)
0,3.3036e-11,
-100000,2.8198e-11,
-200000,2.6166e-11,
-300000,2.505e-11,
-400000,2.6038e-11,
-500000,3.0673e-11,
-600000,4.0388e-11,
-700000,5.6972e-11,
-800000,6.5328e-11,
-900000,6.283e-11,
-1000000,4.8988e-11,
-1100000,3.6897e-11,
-1200000,2.999e-11,
-1300000,2.6455e-11,
-1400000,2.4828e-11,
-1500000,2.4708e-11,
-1600000,2.504e-11,
-1700000,2.531e-11,
-1800000,2.4826e-11,
-1900000,2.3272e-11,
-2000000,2.2492e-11,
-2100000,2.2406e-11,
-2200000,2.2093e-11,
-2300000,2.1594e-11,
-2400000,2.1094e-11,
-2500000,2.0359e-11,
-2600000,1.987e-11,
-2700000,1.9328e-11,
-2800000,1.843e-11,
-2900000,1.8367e-11,
-3000000,1.872e-11,
-3100000,1.956e-11,
-3200000,2.0091e-11,
-3300000,1.8876e-11,
-3400000,1.9098e-11,
-3500000,1.7394e-11,
-3600000,1.6238e-11,
-3700000,1.4895e-11,
-3800000,1.3923e-11,
-3900000,1.3108e-11,
-4000000,1.2569e-11,
-4100000,1.2869e-11,
-4200000,1.2215e-11,
-4300000,1.2392e-11,
-4400000,1.2162e-11,
-4500000,1.2117e-11,
-4600000,1.1869e-11,
-4700000,1.1404e-11,
-4800000,1.1585e-11,
-4900000,1.1095e-11,
-5000000,1.082e-11,
-5100000,1.0352e-11,
-5200000,1.0116e-11,
-5300000,9.7788e-12,
-5400000,1.019e-11,
-5500000,1.0642e-11,
-5600000,1.0089e-11,
-5700000,1.0254e-11,
-5800000,9.1656e-12,
-5900000,8.904e-12,
-6000000,8.5828e-12,
-5950000,8.7248e-12,
-5850000,8.5948e-12,
-5750000,9.8664e-12,
-5650000,1.0117e-11,
-5550000,1.06e-11,
-5450000,1.0456e-11,
-5350000,9.7788e-12,
-5250000,1.014e-11,
-5150000,1.0048e-11,
-5050000,1.0763e-11,
-4950000,1.0832e-11,
-4850000,1.1508e-11,
-4750000,1.1277e-11,
-4650000,1.2006e-11,
-4550000,1.2263e-11,
-4450000,1.2122e-11,
-4350000,1.2366e-11,
-4250000,1.2412e-11,
-4150000,1.2515e-11,
-4050000,1.2436e-11,
-3950000,1.2618e-11,
-3850000,1.3582e-11,
-3750000,1.4176e-11,
-3650000,1.5562e-11,
-3550000,1.7188e-11,
-3450000,1.8566e-11,
-3350000,1.915e-11,
-3250000,1.9369e-11,
-3150000,1.9384e-11,
-3050000,1.9033e-11,
-2950000,1.8968e-11,
-2850000,1.8591e-11,
-2750000,1.9079e-11,
-2650000,1.9317e-11,
-2550000,1.959e-11,
-2450000,2.1497e-11,
-2350000,2.1905e-11,
-2250000,2.2703e-11,
-2150000,2.214e-11,
-2050000,2.2192e-11,
-1950000,2.2918e-11,
-1850000,2.4085e-11,
-1750000,2.4687e-11,
-1650000,2.4973e-11,
-1550000,2.492e-11,
-1450000,2.5019e-11,
-1350000,2.6133e-11,
-1250000,2.7751e-11,
-1150000,3.286e-11,
-1050000,4.2046e-11,
-950000,5.7425e-11,
-850000,6.5652e-11,
-750000,6.1638e-11,
-650000,4.8166e-11,
-550000,3.4738e-11,
-450000,2.7962e-11,
-350000,2.5394e-11,
-250000,2.4992e-11,
-150000,2.6493e-11,
-50000,2.978e-11,
