General parameters:
Start time: 2023             10             19             14             47      25.402926
Finish time: 2023             10             19             15             12      20.252794
Dwell time (ms): 3750.000000
Source chamber pressure: Error-S
Differential chamber pressure: 7.95e-07
Sample chamber pressure: 1.92e-08
Example position (nm): -4123000.000000,-1204000.000000,-1000000.000000
Rotation angle (udeg): 104999850.000000
==========
Instrument status: 
0:Data Directory:/icon/data/2023_09_defect_MoS2_5um_hbn_sub/
1:Sample:MoS2
2:Comments:no
3:PinholePlate:#C13
4:z_Zero:4200
5:Operator:djw77/nav31/kw570
==========
zscan inputs: 
z_sep:50000
z_range:0 -6000000
data_path:/icon/data/2023_09_defect_MoS2_5um_hbn_sub/
example_pos:-4123000 -1204000 -1000000
N_dwell:250
sampling_period:15
make_plots:1
m1:0.98976
m2:-0.0074577
example_pos_norm_1:-4123000 -1180000 -1000000
example_pos_norm_2:-4166000 -1202000 -1000000
==========
Detector params:
Sampling period (ms): 15.000000
N dwell: 250.000000
Filament current (A): 1.540000
Filament emission (mA): 2.090304
Solenoid current (A): NaN
Solenoid shim current (A): NaN
Lens params:
0  685
1  300
2  125
3      -0.002
4       -0.01
5       0.012
6         0.8
7         2.1
8         2.8
9  3000
10  1400
11         0.85
12   0
==========
Data:
z(nm),I(A)
0,1.8297e-11,
-100000,1.7746e-11,
-200000,1.771e-11,
-300000,1.9242e-11,
-400000,2.195e-11,
-500000,2.7509e-11,
-600000,3.6976e-11,
-700000,3.9666e-11,
-800000,3.5383e-11,
-900000,2.8358e-11,
-1000000,2.3031e-11,
-1100000,2.0359e-11,
-1200000,1.9764e-11,
-1300000,2.1373e-11,
-1400000,2.6024e-11,
-1500000,3.022e-11,
-1600000,3.1788e-11,
-1700000,2.9694e-11,
-1800000,2.4748e-11,
-1900000,1.999e-11,
-2000000,1.858e-11,
-2100000,1.9568e-11,
-2200000,2.3533e-11,
-2300000,2.9172e-11,
-2400000,3.621e-11,
-2500000,3.9713e-11,
-2600000,3.9239e-11,
-2700000,3.4879e-11,
-2800000,2.7286e-11,
-2900000,2.1393e-11,
-3000000,1.7757e-11,
-3100000,1.639e-11,
-3200000,1.6444e-11,
-3300000,1.695e-11,
-3400000,1.8316e-11,
-3500000,1.9697e-11,
-3600000,2.1269e-11,
-3700000,2.1345e-11,
-3800000,1.8763e-11,
-3900000,1.6618e-11,
-4000000,1.3264e-11,
-4100000,1.1831e-11,
-4200000,1.0698e-11,
-4300000,9.7828e-12,
-4400000,9.1268e-12,
-4500000,8.84e-12,
-4600000,8.2816e-12,
-4700000,8.2468e-12,
-4800000,7.9412e-12,
-4900000,8.2736e-12,
-5000000,8.1236e-12,
-5100000,7.582e-12,
-5200000,7.6908e-12,
-5300000,7.302e-12,
-5400000,6.9744e-12,
-5500000,7.7488e-12,
-5600000,7.4888e-12,
-5700000,7.4232e-12,
-5800000,6.284e-12,
-5900000,5.8716e-12,
-6000000,6.0668e-12,
-5950000,6.0792e-12,
-5850000,6.1412e-12,
-5750000,6.5276e-12,
-5650000,7.5004e-12,
-5550000,7.5636e-12,
-5450000,7.552e-12,
-5350000,6.9548e-12,
-5250000,7.4184e-12,
-5150000,7.388e-12,
-5050000,7.828e-12,
-4950000,8.028e-12,
-4850000,7.9356e-12,
-4750000,8.0236e-12,
-4650000,7.9676e-12,
-4550000,8.2108e-12,
-4450000,8.4996e-12,
-4350000,9.0984e-12,
-4250000,1.0007e-11,
-4150000,1.1106e-11,
-4050000,1.2161e-11,
-3950000,1.4144e-11,
-3850000,1.7409e-11,
-3750000,1.9753e-11,
-3650000,2.0813e-11,
-3550000,1.9453e-11,
-3450000,1.8893e-11,
-3350000,1.7776e-11,
-3250000,1.6896e-11,
-3150000,1.6422e-11,
-3050000,1.6926e-11,
-2950000,1.9098e-11,
-2850000,2.4537e-11,
-2750000,3.0908e-11,
-2650000,3.7424e-11,
-2550000,3.97e-11,
-2450000,3.8053e-11,
-2350000,3.248e-11,
-2250000,2.5804e-11,
-2150000,2.0828e-11,
-2050000,1.8703e-11,
-1950000,1.8752e-11,
-1850000,2.2119e-11,
-1750000,2.7351e-11,
-1650000,3.107e-11,
-1550000,3.1275e-11,
-1450000,2.8404e-11,
-1350000,2.2726e-11,
-1250000,2.0278e-11,
-1150000,1.9562e-11,
-1050000,2.0575e-11,
-950000,2.4769e-11,
-850000,3.0971e-11,
-750000,3.8087e-11,
-650000,3.8781e-11,
-550000,3.1621e-11,
-450000,2.4238e-11,
-350000,1.9851e-11,
-250000,1.8031e-11,
-150000,1.7242e-11,
-50000,1.7558e-11,
