General parameters:
Start time: 2023             10              6             19             11      10.332084
Finish time: 2023             10              6             19             36       5.607358
Dwell time (ms): 3750.000000
Source chamber pressure: Error-S
Differential chamber pressure: 7.75e-07
Sample chamber pressure: 2.15e-08
Example position (nm): -5155000.000000,-1256000.000000,-2100000.000000
Rotation angle (udeg): 100000065.000000
==========
Instrument status: 
0:Data Directory:/icon/data/2023_09_defect_MoS2_5um_hbn_sub/
1:Sample:MoS2
2:Comments:no
3:PinholePlate:#C13
4:z_Zero:4200
5:Operator:djw77/nav31/kw570
==========
zscan inputs: 
z_sep:50000
z_range:0 -6000000
data_path:/icon/data/2023_09_defect_MoS2_5um_hbn_sub/
example_pos:-5155000 -1256000 -2100000
N_dwell:250
sampling_period:15
make_plots:1
m1:0.98976
m2:-0.0074577
example_pos_norm_1:-5152000 -1244000 -2100000
example_pos_norm_2:-5128000 -1241000 -2100000
==========
Detector params:
Sampling period (ms): 15.000000
N dwell: 250.000000
Filament current (A): 1.540000
Filament emission (mA): 1.643994
Solenoid current (A): NaN
Solenoid shim current (A): NaN
Lens params:
0  685
1  300
2  125
3      -0.002
4       -0.01
5       0.012
6         0.8
7         2.1
8         2.8
9  3000
10  1400
11         0.85
12   0
==========
Data:
z(nm),I(A)
0,2.4309e-11,
-100000,2.4179e-11,
-200000,2.4318e-11,
-300000,2.6931e-11,
-400000,2.9178e-11,
-500000,3.5965e-11,
-600000,4.6322e-11,
-700000,5.3165e-11,
-800000,4.8918e-11,
-900000,3.9555e-11,
-1000000,3.2767e-11,
-1100000,2.895e-11,
-1200000,2.7908e-11,
-1300000,3.0988e-11,
-1400000,3.6118e-11,
-1500000,4.4149e-11,
-1600000,4.6392e-11,
-1700000,4.3654e-11,
-1800000,3.6981e-11,
-1900000,2.9816e-11,
-2000000,2.6914e-11,
-2100000,2.8046e-11,
-2200000,3.222e-11,
-2300000,4.0497e-11,
-2400000,4.9285e-11,
-2500000,5.5493e-11,
-2600000,5.4119e-11,
-2700000,4.6659e-11,
-2800000,3.794e-11,
-2900000,2.9648e-11,
-3000000,2.3786e-11,
-3100000,2.2236e-11,
-3200000,2.1076e-11,
-3300000,2.1207e-11,
-3400000,2.2174e-11,
-3500000,2.274e-11,
-3600000,2.2872e-11,
-3700000,2.241e-11,
-3800000,2.0154e-11,
-3900000,1.796e-11,
-4000000,1.6113e-11,
-4100000,1.4799e-11,
-4200000,1.4401e-11,
-4300000,1.3539e-11,
-4400000,1.2605e-11,
-4500000,1.2318e-11,
-4600000,1.1762e-11,
-4700000,1.1382e-11,
-4800000,1.1356e-11,
-4900000,1.089e-11,
-5000000,1.0956e-11,
-5100000,1.0834e-11,
-5200000,1.0647e-11,
-5300000,1.007e-11,
-5400000,9.54e-12,
-5500000,1.1092e-11,
-5600000,1.0993e-11,
-5700000,1.0485e-11,
-5800000,9.2908e-12,
-5900000,9.024e-12,
-6000000,8.6144e-12,
-5950000,9.028e-12,
-5850000,8.9476e-12,
-5750000,9.4452e-12,
-5650000,1.0906e-11,
-5550000,1.1082e-11,
-5450000,1.0954e-11,
-5350000,9.894e-12,
-5250000,1.0126e-11,
-5150000,1.0005e-11,
-5050000,1.0542e-11,
-4950000,1.0778e-11,
-4850000,1.1208e-11,
-4750000,1.128e-11,
-4650000,1.1858e-11,
-4550000,1.2058e-11,
-4450000,1.2617e-11,
-4350000,1.3192e-11,
-4250000,1.3747e-11,
-4150000,1.46e-11,
-4050000,1.4968e-11,
-3950000,1.6481e-11,
-3850000,1.8788e-11,
-3750000,2.153e-11,
-3650000,2.2463e-11,
-3550000,2.3078e-11,
-3450000,2.1924e-11,
-3350000,2.2611e-11,
-3250000,2.2192e-11,
-3150000,2.2171e-11,
-3050000,2.289e-11,
-2950000,2.6612e-11,
-2850000,3.3274e-11,
-2750000,4.2118e-11,
-2650000,5.1504e-11,
-2550000,5.5427e-11,
-2450000,5.3397e-11,
-2350000,4.5636e-11,
-2250000,3.6072e-11,
-2150000,2.9624e-11,
-2050000,2.6607e-11,
-1950000,2.7798e-11,
-1850000,3.301e-11,
-1750000,4.1394e-11,
-1650000,4.5808e-11,
-1550000,4.6542e-11,
-1450000,4.1004e-11,
-1350000,3.305e-11,
-1250000,2.9101e-11,
-1150000,2.779e-11,
-1050000,2.9748e-11,
-950000,3.5622e-11,
-850000,4.4289e-11,
-750000,5.2418e-11,
-650000,5.1437e-11,
-550000,4.1577e-11,
-450000,3.273e-11,
-350000,2.7985e-11,
-250000,2.5399e-11,
-150000,2.429e-11,
-50000,2.4151e-11,
