General parameters:
Start time: 2023             10             26             15             36      37.411638
Finish time: 2023             10             26             16              1      30.802323
Dwell time (ms): 3750.000000
Source chamber pressure: Error-S
Differential chamber pressure: 6.42e-07
Sample chamber pressure: 1.91e-08
Example position (nm): -3233000.000000,-1518000.000000,-1000000.000000
Rotation angle (udeg): 39999930.000000
==========
Instrument status: 
0:Data Directory:/icon/data/2023_09_defect_MoS2_5um_hbn_sub/
1:Sample:MoS2
2:Comments:no
3:PinholePlate:#C13
4:z_Zero:4200
5:Operator:djw77/nav31/kw570
==========
zscan inputs: 
z_sep:50000
z_range:0 -6000000
data_path:/icon/data/2023_09_defect_MoS2_5um_hbn_sub/
example_pos:-3233000 -1518000 -1000000
N_dwell:250
sampling_period:15
make_plots:1
m1:0.9881
m2:-0.0074577
example_pos_norm_1:-3253000 -1508000 -1000000
example_pos_norm_2:-3268000 -1540000 -1000000
==========
Detector params:
Sampling period (ms): 15.000000
N dwell: 250.000000
Filament current (A): 1.540000
Filament emission (mA): 2.239416
Solenoid current (A): NaN
Solenoid shim current (A): NaN
Lens params:
0  685
1  300
2  125
3      -0.002
4       -0.01
5       0.012
6         0.8
7         2.1
8         2.8
9  3000
10  1400
11         0.85
12   0
==========
Data:
z(nm),I(A)
0,3.3388e-11,
-100000,3.1561e-11,
-200000,2.9773e-11,
-300000,2.8906e-11,
-400000,3.1144e-11,
-500000,3.9805e-11,
-600000,5.7524e-11,
-700000,8.7101e-11,
-800000,1.0046e-10,
-900000,9.9362e-11,
-1000000,7.6249e-11,
-1100000,5.0932e-11,
-1200000,3.8922e-11,
-1300000,3.5799e-11,
-1400000,3.7464e-11,
-1500000,4.564e-11,
-1600000,5.5591e-11,
-1700000,5.949e-11,
-1800000,5.7093e-11,
-1900000,4.8584e-11,
-2000000,3.5776e-11,
-2100000,2.9026e-11,
-2200000,2.7303e-11,
-2300000,2.9625e-11,
-2400000,3.5939e-11,
-2500000,4.3957e-11,
-2600000,5.1147e-11,
-2700000,5.1935e-11,
-2800000,4.7324e-11,
-2900000,3.767e-11,
-3000000,2.9393e-11,
-3100000,2.4544e-11,
-3200000,2.1998e-11,
-3300000,2.0051e-11,
-3400000,1.9632e-11,
-3500000,1.918e-11,
-3600000,1.9234e-11,
-3700000,1.924e-11,
-3800000,1.8618e-11,
-3900000,1.8298e-11,
-4000000,1.6912e-11,
-4100000,1.5652e-11,
-4200000,1.5266e-11,
-4300000,1.513e-11,
-4400000,1.4421e-11,
-4500000,1.3784e-11,
-4600000,1.363e-11,
-4700000,1.3382e-11,
-4800000,1.2976e-11,
-4900000,1.2634e-11,
-5000000,1.219e-11,
-5100000,1.2226e-11,
-5200000,1.1814e-11,
-5300000,1.0878e-11,
-5400000,1.1469e-11,
-5500000,1.3037e-11,
-5600000,1.3212e-11,
-5700000,1.1607e-11,
-5800000,1.0605e-11,
-5900000,1.0565e-11,
-6000000,1.0663e-11,
-5950000,1.0802e-11,
-5850000,1.062e-11,
-5750000,1.1237e-11,
-5650000,1.2651e-11,
-5550000,1.3133e-11,
-5450000,1.231e-11,
-5350000,1.1687e-11,
-5250000,1.1798e-11,
-5150000,1.1835e-11,
-5050000,1.2161e-11,
-4950000,1.2968e-11,
-4850000,1.269e-11,
-4750000,1.2926e-11,
-4650000,1.3125e-11,
-4550000,1.3456e-11,
-4450000,1.4188e-11,
-4350000,1.4462e-11,
-4250000,1.4751e-11,
-4150000,1.5721e-11,
-4050000,1.6306e-11,
-3950000,1.7601e-11,
-3850000,1.8137e-11,
-3750000,1.842e-11,
-3650000,1.8718e-11,
-3550000,1.9169e-11,
-3450000,1.8752e-11,
-3350000,1.9712e-11,
-3250000,2.0332e-11,
-3150000,2.3605e-11,
-3050000,2.6499e-11,
-2950000,3.3434e-11,
-2850000,4.267e-11,
-2750000,5.0046e-11,
-2650000,5.1765e-11,
-2550000,4.8879e-11,
-2450000,4.0485e-11,
-2350000,3.2902e-11,
-2250000,2.8513e-11,
-2150000,2.6988e-11,
-2050000,3.1616e-11,
-1950000,4.1786e-11,
-1850000,5.3308e-11,
-1750000,5.9132e-11,
-1650000,5.8734e-11,
-1550000,5.1091e-11,
-1450000,4.1102e-11,
-1350000,3.6284e-11,
-1250000,3.6354e-11,
-1150000,4.3658e-11,
-1050000,6.038e-11,
-950000,9.1018e-11,
-850000,1.0232e-10,
-750000,9.546e-11,
-650000,7.2797e-11,
-550000,4.7546e-11,
-450000,3.4236e-11,
-350000,3.0016e-11,
-250000,2.9508e-11,
-150000,3.0254e-11,
-50000,3.251e-11,
