General parameters:
Start time: 2023             10             23             11             21      17.142925
Finish time: 2023             10             23             11             46      15.241202
Dwell time (ms): 3750.000000
Source chamber pressure: Error-S
Differential chamber pressure: 7.53e-07
Sample chamber pressure: 1.82e-08
Example position (nm): -3594000.000000,-1514000.000000,-1000000.000000
Rotation angle (udeg): 65000025.000000
==========
Instrument status: 
0:Data Directory:/icon/data/2023_09_defect_MoS2_5um_hbn_sub/
1:Sample:MoS2
2:Comments:no
3:PinholePlate:#C13
4:z_Zero:4200
5:Operator:djw77/nav31/kw570
==========
zscan inputs: 
z_sep:50000
z_range:0 -6000000
data_path:/icon/data/2023_09_defect_MoS2_5um_hbn_sub/
example_pos:-3594000 -1514000 -1000000
N_dwell:250
sampling_period:15
make_plots:1
m1:0.98976
m2:-0.0074577
example_pos_norm_1:-3611000 -1496000 -1000000
example_pos_norm_2:-3628000 -1524000 -1000000
==========
Detector params:
Sampling period (ms): 15.000000
N dwell: 250.000000
Filament current (A): 1.540000
Filament emission (mA): 2.221974
Solenoid current (A): NaN
Solenoid shim current (A): NaN
Lens params:
0  685
1  300
2  125
3      -0.002
4       -0.01
5       0.012
6         0.8
7         2.1
8         2.8
9  3000
10  1400
11         0.85
12   0
==========
Data:
z(nm),I(A)
0,4.0342e-11,
-100000,3.5816e-11,
-200000,3.2174e-11,
-300000,3.1961e-11,
-400000,3.3803e-11,
-500000,4.0617e-11,
-600000,5.485e-11,
-700000,7.5487e-11,
-800000,8.413e-11,
-900000,7.664e-11,
-1000000,5.9093e-11,
-1100000,4.4719e-11,
-1200000,3.7035e-11,
-1300000,3.2682e-11,
-1400000,3.1407e-11,
-1500000,2.9483e-11,
-1600000,2.887e-11,
-1700000,2.8399e-11,
-1800000,2.8464e-11,
-1900000,2.7677e-11,
-2000000,2.9168e-11,
-2100000,3.0294e-11,
-2200000,3.2407e-11,
-2300000,3.4032e-11,
-2400000,3.2943e-11,
-2500000,3.0759e-11,
-2600000,2.6743e-11,
-2700000,2.4694e-11,
-2800000,2.3444e-11,
-2900000,2.2376e-11,
-3000000,2.2825e-11,
-3100000,2.449e-11,
-3200000,2.5642e-11,
-3300000,2.5969e-11,
-3400000,2.639e-11,
-3500000,2.4193e-11,
-3600000,2.2556e-11,
-3700000,2.049e-11,
-3800000,1.8618e-11,
-3900000,1.7455e-11,
-4000000,1.6366e-11,
-4100000,1.5706e-11,
-4200000,1.5434e-11,
-4300000,1.5312e-11,
-4400000,1.411e-11,
-4500000,1.474e-11,
-4600000,1.3973e-11,
-4700000,1.4005e-11,
-4800000,1.3353e-11,
-4900000,1.352e-11,
-5000000,1.3641e-11,
-5100000,1.2531e-11,
-5200000,1.2606e-11,
-5300000,1.2132e-11,
-5400000,1.2647e-11,
-5500000,1.4386e-11,
-5600000,1.3819e-11,
-5700000,1.326e-11,
-5800000,1.2474e-11,
-5900000,1.1424e-11,
-6000000,1.1448e-11,
-5950000,1.128e-11,
-5850000,1.14e-11,
-5750000,1.2364e-11,
-5650000,1.3541e-11,
-5550000,1.4215e-11,
-5450000,1.382e-11,
-5350000,1.245e-11,
-5250000,1.2764e-11,
-5150000,1.2991e-11,
-5050000,1.3249e-11,
-4950000,1.3143e-11,
-4850000,1.2926e-11,
-4750000,1.3414e-11,
-4650000,1.4014e-11,
-4550000,1.4484e-11,
-4450000,1.4834e-11,
-4350000,1.5211e-11,
-4250000,1.4991e-11,
-4150000,1.5134e-11,
-4050000,1.6032e-11,
-3950000,1.6122e-11,
-3850000,1.7513e-11,
-3750000,1.9669e-11,
-3650000,2.1287e-11,
-3550000,2.4006e-11,
-3450000,2.5405e-11,
-3350000,2.6314e-11,
-3250000,2.616e-11,
-3150000,2.4773e-11,
-3050000,2.3547e-11,
-2950000,2.2824e-11,
-2850000,2.2491e-11,
-2750000,2.3312e-11,
-2650000,2.5446e-11,
-2550000,2.8401e-11,
-2450000,3.2569e-11,
-2350000,3.3797e-11,
-2250000,3.3087e-11,
-2150000,3.1423e-11,
-2050000,2.9788e-11,
-1950000,2.7966e-11,
-1850000,2.799e-11,
-1750000,2.8575e-11,
-1650000,2.8188e-11,
-1550000,2.9178e-11,
-1450000,2.9618e-11,
-1350000,3.1291e-11,
-1250000,3.5044e-11,
-1150000,4.1066e-11,
-1050000,5.1024e-11,
-950000,6.8378e-11,
-850000,8.1163e-11,
-750000,8.0273e-11,
-650000,6.5416e-11,
-550000,4.6859e-11,
-450000,3.696e-11,
-350000,3.2546e-11,
-250000,3.1653e-11,
-150000,3.3114e-11,
-50000,3.6446e-11,
