General parameters:
Start time: 2023             10              9             17             23       2.247225
Finish time: 2023             10              9             17             47       57.10737
Dwell time (ms): 3750.000000
Source chamber pressure: Error-S
Differential chamber pressure: 7.70e-07
Sample chamber pressure: 2.18e-08
Example position (nm): -3957000.000000,-1359000.000000,-1000000.000000
Rotation angle (udeg): 90000105.000000
==========
Instrument status: 
0:Data Directory:/icon/data/2023_09_defect_MoS2_5um_hbn_sub/
1:Sample:MoS2
2:Comments:no
3:PinholePlate:#C13
4:z_Zero:4200
5:Operator:djw77/nav31/kw570
==========
zscan inputs: 
z_sep:50000
z_range:0 -6000000
data_path:/icon/data/2023_09_defect_MoS2_5um_hbn_sub/
example_pos:-3957000 -1359000 -1000000
N_dwell:250
sampling_period:15
make_plots:1
m1:0.98976
m2:-0.0074577
example_pos_norm_1:-3965000 -1334000 -1000000
example_pos_norm_2:-3990000 -1369000 -1000000
==========
Detector params:
Sampling period (ms): 15.000000
N dwell: 250.000000
Filament current (A): 1.540000
Filament emission (mA): 1.770192
Solenoid current (A): NaN
Solenoid shim current (A): NaN
Lens params:
0  685
1  300
2  125
3      -0.002
4       -0.01
5       0.012
6         0.8
7         2.1
8         2.8
9  3000
10  1400
11         0.85
12   0
==========
Data:
z(nm),I(A)
0,2.1718e-11,
-100000,2.1587e-11,
-200000,2.3094e-11,
-300000,2.4166e-11,
-400000,2.7491e-11,
-500000,3.3554e-11,
-600000,4.43e-11,
-700000,5.281e-11,
-800000,5.2339e-11,
-900000,4.3283e-11,
-1000000,3.5318e-11,
-1100000,2.9207e-11,
-1200000,2.7709e-11,
-1300000,2.95e-11,
-1400000,3.386e-11,
-1500000,3.824e-11,
-1600000,4.0212e-11,
-1700000,3.6587e-11,
-1800000,3.2161e-11,
-1900000,2.5751e-11,
-2000000,2.3571e-11,
-2100000,2.2395e-11,
-2200000,2.3754e-11,
-2300000,2.4167e-11,
-2400000,2.3904e-11,
-2500000,2.4018e-11,
-2600000,2.3269e-11,
-2700000,2.212e-11,
-2800000,2.1058e-11,
-2900000,2.0651e-11,
-3000000,2.0544e-11,
-3100000,2.0904e-11,
-3200000,2.0578e-11,
-3300000,1.9195e-11,
-3400000,1.8344e-11,
-3500000,1.7975e-11,
-3600000,1.6028e-11,
-3700000,1.5759e-11,
-3800000,1.5089e-11,
-3900000,1.4256e-11,
-4000000,1.3123e-11,
-4100000,1.3275e-11,
-4200000,1.36e-11,
-4300000,1.348e-11,
-4400000,1.2784e-11,
-4500000,1.2777e-11,
-4600000,1.2304e-11,
-4700000,1.1713e-11,
-4800000,1.1355e-11,
-4900000,1.1054e-11,
-5000000,1.0831e-11,
-5100000,1.0741e-11,
-5200000,1.0552e-11,
-5300000,1.0577e-11,
-5400000,1.0924e-11,
-5500000,1.0716e-11,
-5600000,1.0918e-11,
-5700000,1.049e-11,
-5800000,1.0082e-11,
-5900000,9.996e-12,
-6000000,1.0072e-11,
-5950000,9.5936e-12,
-5850000,9.778e-12,
-5750000,1.0468e-11,
-5650000,1.0958e-11,
-5550000,1.0965e-11,
-5450000,1.1067e-11,
-5350000,1.0718e-11,
-5250000,1.0835e-11,
-5150000,1.0921e-11,
-5050000,1.1112e-11,
-4950000,1.0854e-11,
-4850000,1.0864e-11,
-4750000,1.1562e-11,
-4650000,1.2564e-11,
-4550000,1.2224e-11,
-4450000,1.2425e-11,
-4350000,1.2612e-11,
-4250000,1.293e-11,
-4150000,1.3508e-11,
-4050000,1.2908e-11,
-3950000,1.3798e-11,
-3850000,1.3684e-11,
-3750000,1.4525e-11,
-3650000,1.5677e-11,
-3550000,1.638e-11,
-3450000,1.68e-11,
-3350000,1.7628e-11,
-3250000,1.9397e-11,
-3150000,2.0132e-11,
-3050000,2.064e-11,
-2950000,2.0552e-11,
-2850000,2.0964e-11,
-2750000,2.1308e-11,
-2650000,2.2424e-11,
-2550000,2.408e-11,
-2450000,2.4803e-11,
-2350000,2.5486e-11,
-2250000,2.4289e-11,
-2150000,2.4101e-11,
-2050000,2.3777e-11,
-1950000,2.6251e-11,
-1850000,2.995e-11,
-1750000,3.5398e-11,
-1650000,3.8829e-11,
-1550000,4.0103e-11,
-1450000,3.7772e-11,
-1350000,3.2406e-11,
-1250000,2.8566e-11,
-1150000,2.8501e-11,
-1050000,3.216e-11,
-950000,3.8444e-11,
-850000,4.9056e-11,
-750000,5.4308e-11,
-650000,4.9613e-11,
-550000,3.8283e-11,
-450000,2.9976e-11,
-350000,2.542e-11,
-250000,2.3208e-11,
-150000,2.1821e-11,
-50000,2.1186e-11,
