General parameters:
Start time: 2023             10             11             12             13      31.295057
Finish time: 2023             10             11             12             38      26.108029
Dwell time (ms): 3750.000000
Source chamber pressure: Error-S
Differential chamber pressure: 7.68e-07
Sample chamber pressure: 2.30e-08
Example position (nm): -4168000.000000,-1140000.000000,-1000000.000000
Rotation angle (udeg): 110000090.000000
==========
Instrument status: 
0:Data Directory:/icon/data/2023_09_defect_MoS2_5um_hbn_sub/
1:Sample:MoS2
2:Comments:no
3:PinholePlate:#C13
4:z_Zero:4200
5:Operator:djw77/nav31/kw570
==========
zscan inputs: 
z_sep:50000
z_range:0 -6000000
data_path:/icon/data/2023_09_defect_MoS2_5um_hbn_sub/
example_pos:-4168000 -1140000 -1000000
N_dwell:250
sampling_period:15
make_plots:1
m1:0.98976
m2:-0.0074577
example_pos_norm_1:-4166000 -1115000 -1000000
example_pos_norm_2:-4206000 -1152000 -1000000
==========
Detector params:
Sampling period (ms): 15.000000
N dwell: 250.000000
Filament current (A): 1.540000
Filament emission (mA): 1.752750
Solenoid current (A): NaN
Solenoid shim current (A): NaN
Lens params:
0  685
1  300
2  125
3      -0.002
4       -0.01
5       0.012
6         0.8
7         2.1
8         2.8
9  3000
10  1400
11         0.85
12   0
==========
Data:
z(nm),I(A)
0,2.5286e-11,
-100000,2.3864e-11,
-200000,2.4443e-11,
-300000,2.5544e-11,
-400000,3.0831e-11,
-500000,3.8564e-11,
-600000,4.9623e-11,
-700000,5.1503e-11,
-800000,4.4616e-11,
-900000,3.5335e-11,
-1000000,2.9602e-11,
-1100000,2.6397e-11,
-1200000,2.6066e-11,
-1300000,2.7682e-11,
-1400000,3.0403e-11,
-1500000,3.4162e-11,
-1600000,3.5451e-11,
-1700000,3.2e-11,
-1800000,2.8434e-11,
-1900000,2.5433e-11,
-2000000,2.3761e-11,
-2100000,2.4407e-11,
-2200000,2.6824e-11,
-2300000,2.9426e-11,
-2400000,3.2292e-11,
-2500000,3.3902e-11,
-2600000,3.22e-11,
-2700000,2.9904e-11,
-2800000,2.571e-11,
-2900000,2.2538e-11,
-3000000,2.1049e-11,
-3100000,1.941e-11,
-3200000,1.914e-11,
-3300000,1.8305e-11,
-3400000,1.8143e-11,
-3500000,1.8618e-11,
-3600000,1.8693e-11,
-3700000,1.8392e-11,
-3800000,1.6777e-11,
-3900000,1.5903e-11,
-4000000,1.4182e-11,
-4100000,1.3458e-11,
-4200000,1.3315e-11,
-4300000,1.2412e-11,
-4400000,1.1479e-11,
-4500000,1.1167e-11,
-4600000,1.1062e-11,
-4700000,1.0766e-11,
-4800000,1.0499e-11,
-4900000,1.0247e-11,
-5000000,1.0391e-11,
-5100000,1.002e-11,
-5200000,9.8852e-12,
-5300000,9.3292e-12,
-5400000,9.65e-12,
-5500000,1.0448e-11,
-5600000,1.0793e-11,
-5700000,1.0368e-11,
-5800000,9.0204e-12,
-5900000,8.4068e-12,
-6000000,8.8612e-12,
-5950000,8.8444e-12,
-5850000,8.8948e-12,
-5750000,8.7472e-12,
-5650000,1.0596e-11,
-5550000,1.0988e-11,
-5450000,1.0476e-11,
-5350000,9.1864e-12,
-5250000,9.2532e-12,
-5150000,9.7132e-12,
-5050000,1.0182e-11,
-4950000,1.0102e-11,
-4850000,1.0671e-11,
-4750000,1.0789e-11,
-4650000,1.0501e-11,
-4550000,1.1074e-11,
-4450000,1.0994e-11,
-4350000,1.1605e-11,
-4250000,1.284e-11,
-4150000,1.2997e-11,
-4050000,1.4018e-11,
-3950000,1.4733e-11,
-3850000,1.6242e-11,
-3750000,1.7407e-11,
-3650000,1.861e-11,
-3550000,1.8885e-11,
-3450000,1.8847e-11,
-3350000,1.9107e-11,
-3250000,1.9298e-11,
-3150000,1.9723e-11,
-3050000,1.9739e-11,
-2950000,2.1692e-11,
-2850000,2.4186e-11,
-2750000,2.7738e-11,
-2650000,3.0844e-11,
-2550000,3.3333e-11,
-2450000,3.3389e-11,
-2350000,3.1564e-11,
-2250000,2.7461e-11,
-2150000,2.578e-11,
-2050000,2.4246e-11,
-1950000,2.4307e-11,
-1850000,2.6965e-11,
-1750000,3.0023e-11,
-1650000,3.3998e-11,
-1550000,3.5433e-11,
-1450000,3.2298e-11,
-1350000,2.9283e-11,
-1250000,2.6985e-11,
-1150000,2.6541e-11,
-1050000,2.8218e-11,
-950000,3.1719e-11,
-850000,4.0066e-11,
-750000,4.9451e-11,
-650000,5.1994e-11,
-550000,4.4683e-11,
-450000,3.4552e-11,
-350000,2.8006e-11,
-250000,2.475e-11,
-150000,2.4402e-11,
-50000,2.4382e-11,
