General parameters:
Start time: 2023             10             20             14             38       3.202991
Finish time: 2023             10             20             15              2      56.274762
Dwell time (ms): 3750.000000
Source chamber pressure: Error-S
Differential chamber pressure: 7.96e-07
Sample chamber pressure: 1.92e-08
Example position (nm): -3888000.000000,-1398000.000000,-1000000.000000
Rotation angle (udeg): 85000125.000000
==========
Instrument status: 
0:Data Directory:/icon/data/2023_09_defect_MoS2_5um_hbn_sub/
1:Sample:MoS2
2:Comments:no
3:PinholePlate:#C13
4:z_Zero:4200
5:Operator:djw77/nav31/kw570
==========
zscan inputs: 
z_sep:50000
z_range:0 -6000000
data_path:/icon/data/2023_09_defect_MoS2_5um_hbn_sub/
example_pos:-3888000 -1398000 -1000000
N_dwell:250
sampling_period:15
make_plots:1
m1:0.98976
m2:-0.0074577
example_pos_norm_1:-3898000 -1378000 -1000000
example_pos_norm_2:-3926000 -1402000 -1000000
==========
Detector params:
Sampling period (ms): 15.000000
N dwell: 250.000000
Filament current (A): 1.540000
Filament emission (mA): 2.098512
Solenoid current (A): NaN
Solenoid shim current (A): NaN
Lens params:
0  685
1  300
2  125
3      -0.002
4       -0.01
5       0.012
6         0.8
7         2.1
8         2.8
9  3000
10  1400
11         0.85
12   0
==========
Data:
z(nm),I(A)
0,1.7449e-11,
-100000,1.7063e-11,
-200000,1.8134e-11,
-300000,1.9019e-11,
-400000,2.1482e-11,
-500000,2.6423e-11,
-600000,3.5257e-11,
-700000,4.4469e-11,
-800000,4.5785e-11,
-900000,3.9026e-11,
-1000000,2.9901e-11,
-1100000,2.4974e-11,
-1200000,2.2374e-11,
-1300000,2.2227e-11,
-1400000,2.3806e-11,
-1500000,2.7461e-11,
-1600000,2.7764e-11,
-1700000,2.4866e-11,
-1800000,2.1705e-11,
-1900000,1.8503e-11,
-2000000,1.7297e-11,
-2100000,1.7139e-11,
-2200000,1.7483e-11,
-2300000,1.7407e-11,
-2400000,1.78e-11,
-2500000,1.7236e-11,
-2600000,1.7155e-11,
-2700000,1.5884e-11,
-2800000,1.6426e-11,
-2900000,1.7109e-11,
-3000000,1.8865e-11,
-3100000,2.0048e-11,
-3200000,2.133e-11,
-3300000,2.0992e-11,
-3400000,2.0105e-11,
-3500000,1.8419e-11,
-3600000,1.5894e-11,
-3700000,1.3704e-11,
-3800000,1.1902e-11,
-3900000,1.1076e-11,
-4000000,1.0715e-11,
-4100000,1.0075e-11,
-4200000,1.0143e-11,
-4300000,9.9824e-12,
-4400000,9.0996e-12,
-4500000,9.2772e-12,
-4600000,8.828e-12,
-4700000,8.45e-12,
-4800000,8.2424e-12,
-4900000,8.4812e-12,
-5000000,7.928e-12,
-5100000,7.7996e-12,
-5200000,8.1164e-12,
-5300000,7.8088e-12,
-5400000,7.55e-12,
-5500000,8.282e-12,
-5600000,8.354e-12,
-5700000,8.2216e-12,
-5800000,7.3196e-12,
-5900000,6.9124e-12,
-6000000,6.6396e-12,
-5950000,6.8772e-12,
-5850000,6.906e-12,
-5750000,7.7076e-12,
-5650000,8.2692e-12,
-5550000,8.2248e-12,
-5450000,8.2416e-12,
-5350000,7.4184e-12,
-5250000,7.4948e-12,
-5150000,7.5932e-12,
-5050000,7.722e-12,
-4950000,7.9132e-12,
-4850000,7.9128e-12,
-4750000,8.7416e-12,
-4650000,8.6764e-12,
-4550000,8.7156e-12,
-4450000,9.198e-12,
-4350000,9.2408e-12,
-4250000,9.9408e-12,
-4150000,9.5832e-12,
-4050000,1.0125e-11,
-3950000,1.0612e-11,
-3850000,1.1147e-11,
-3750000,1.2029e-11,
-3650000,1.4103e-11,
-3550000,1.6424e-11,
-3450000,1.8745e-11,
-3350000,1.9528e-11,
-3250000,2.0954e-11,
-3150000,2.1155e-11,
-3050000,1.8946e-11,
-2950000,1.6907e-11,
-2850000,1.633e-11,
-2750000,1.584e-11,
-2650000,1.6231e-11,
-2550000,1.6716e-11,
-2450000,1.743e-11,
-2350000,1.6971e-11,
-2250000,1.7092e-11,
-2150000,1.6597e-11,
-2050000,1.7189e-11,
-1950000,1.7501e-11,
-1850000,1.9742e-11,
-1750000,2.3048e-11,
-1650000,2.6164e-11,
-1550000,2.6711e-11,
-1450000,2.5215e-11,
-1350000,2.2385e-11,
-1250000,2.1088e-11,
-1150000,2.2338e-11,
-1050000,2.6383e-11,
-950000,3.2771e-11,
-850000,4.2142e-11,
-750000,4.5311e-11,
-650000,4.0002e-11,
-550000,3.029e-11,
-450000,2.3295e-11,
-350000,1.9676e-11,
-250000,1.7908e-11,
-150000,1.6999e-11,
-50000,1.6817e-11,
