General parameters:
Start time: 2023             10              2             18             49      42.595436
Finish time: 2023             10              2             18             58      17.228667
Dwell time (ms): 3750.000000
Source chamber pressure: Error-S
Differential chamber pressure: 5.28e-07
Sample chamber pressure: 2.50e-08
Example position (nm): -4186000.000000,-1272000.000000,-1100000.000000
Rotation angle (udeg): 99999965.000000
==========
Instrument status: 
0:Data Directory:/icon/data/2023_09_defect_MoS2_5um_hbn_sub/
1:Sample:MoS2
2:Comments:no
3:PinholePlate:#C13
4:z_Zero:4200
5:Operator:djw77/nav31/kw570
==========
zscan inputs: 
z_sep:50000
z_range:0 -6000000
data_path:/icon/data/2023_09_defect_MoS2_5um_hbn_sub/
example_pos:-4186000 -1272000 -1100000
N_dwell:250
sampling_period:15
make_plots:1
m1:0.98976
m2:-0.0073571
==========
Detector params:
Sampling period (ms): 15.000000
N dwell: 250.000000
Filament current (A): 1.540000
Filament emission (mA): 1.347138
Solenoid current (A): NaN
Solenoid shim current (A): NaN
Lens params:
0  685
1  300
2  125
3      -0.002
4       -0.01
5       0.012
6         0.8
7         2.1
8         2.8
9  3000
10  1250
11         0.85
12   0
==========
Data:
z(nm),I(A)
0,2.348e-12,
-100000,2.3976e-12,
-200000,2.4188e-12,
-300000,2.4484e-12,
-400000,2.5704e-12,
-500000,2.608e-12,
-600000,2.6744e-12,
-700000,2.666e-12,
-800000,2.6576e-12,
-900000,2.732e-12,
-1000000,2.7704e-12,
-1100000,2.7104e-12,
-1200000,2.7072e-12,
-1300000,2.7048e-12,
-1400000,2.6264e-12,
-1500000,2.6272e-12,
-1600000,2.5216e-12,
-1700000,2.6692e-12,
-1800000,2.3912e-12,
-1900000,2.346e-12,
-2000000,2.2644e-12,
-2100000,2.156e-12,
-2200000,2.1124e-12,
-2300000,2.166e-12,
-2400000,2.0744e-12,
-2500000,1.9444e-12,
-2600000,1.8756e-12,
-2700000,1.7828e-12,
-2800000,1.7236e-12,
-2900000,1.5508e-12,
-3000000,1.476e-12,
-3100000,1.3468e-12,
-3200000,1.2872e-12,
-3300000,1.2056e-12,
-3400000,1.1688e-12,
-3500000,1.2172e-12,
-3600000,9.124e-13,
-3700000,9.52e-13,
-3800000,9.44e-13,
-3900000,7.72e-13,
-4000000,6.364e-13,
-4100000,6.452e-13,
-4200000,5.996e-13,
-4300000,5.856e-13,
-4400000,5.016e-13,
-4500000,3.688e-13,
-4600000,4.152e-13,
-4700000,2.12e-13,
-4800000,2.912e-13,
-4900000,1.416e-13,
-5000000,1.492e-13,
-5100000,1.46e-13,
-5200000,6.76e-14,
-5300000,1.032e-13,
-5400000,7.96e-14,
-5500000,1.8e-14,
-5600000,1.96e-14,
-5700000,4e-15,
-5800000,1.964e-13,
-5900000,1.136e-13,
-6000000,2.4e-13,
-5950000,1.44e-13,
-5850000,2e-13,
-5750000,1.388e-13,
-5650000,5.48e-14,
-5550000,1.56e-14,
-5450000,2.04e-14,
-5350000,3.68e-14,
-5250000,1.432e-13,
-5150000,1.56e-14,
-5050000,3.52e-14,
-4950000,7.16e-14,
-4850000,4.8e-14,
-4750000,1.948e-13,
-4650000,2.784e-13,
-4550000,3.036e-13,
-4450000,3.612e-13,
-4350000,4.148e-13,
-4250000,5.468e-13,
-4150000,6.292e-13,
-4050000,5.648e-13,
-3950000,6.488e-13,
-3850000,8.588e-13,
-3750000,7.684e-13,
-3650000,8.456e-13,
-3550000,9.468e-13,
-3450000,1.1124e-12,
-3350000,1.1244e-12,
-3250000,1.2348e-12,
-3150000,1.36e-12,
-3050000,1.4548e-12,
-2950000,1.4788e-12,
-2850000,1.7212e-12,
-2750000,1.8028e-12,
-2650000,1.6776e-12,
-2550000,1.84e-12,
-2450000,1.918e-12,
-2350000,2.0796e-12,
-2250000,2.0244e-12,
-2150000,2.1796e-12,
-2050000,2.27e-12,
-1950000,2.3212e-12,
-1850000,2.416e-12,
-1750000,2.502e-12,
-1650000,2.6124e-12,
-1550000,2.6816e-12,
-1450000,2.6928e-12,
-1350000,2.7276e-12,
-1250000,2.6504e-12,
-1150000,2.67e-12,
-1050000,2.7352e-12,
-950000,2.7584e-12,
-850000,2.6128e-12,
-750000,2.7244e-12,
-650000,2.6888e-12,
-550000,2.7044e-12,
-450000,2.3684e-12,
-350000,2.5528e-12,
-250000,2.4424e-12,
-150000,2.5548e-12,
-50000,2.2636e-12,
