General parameters:
Start time: 2023             11             14              2             52      58.912285
Finish time: 2023             11             14              3             17      57.773407
Dwell time (ms): 3750.000000
Source chamber pressure: Error-S
Differential chamber pressure: 8.00e-07
Sample chamber pressure: 1.71e-08
Example position (nm): -4529000.000000,-5000.000000,-750000.000000
Rotation angle (udeg): 119999985.000000
==========
Instrument status: 
0:Data Directory:/icon/data/2023_11_defect2_MoS2_5um_hbn_sub/
1:Sample:MoS2
2:Comments:no
3:PinholePlate:#C13
4:z_Zero:4200
5:Operator:djw77/nav31/kw570
==========
zscan inputs: 
z_sep:50000
z_range:0 -6000000
data_path:/icon/data/2023_11_defect2_MoS2_5um_hbn_sub/
example_pos:-4529000    -5000  -750000
N_dwell:250
sampling_period:15
make_plots:1
m1:0.98976
m2:-0.0073571
example_pos_norm_1:-4551000   -13000  -750000
example_pos_norm_2:-4556000   -45000  -750000
==========
Detector params:
Sampling period (ms): 15.000000
N dwell: 250.000000
Filament current (A): 1.540000
Filament emission (mA): 2.295846
Solenoid current (A): NaN
Solenoid shim current (A): NaN
Lens params:
0  685
1  300
2  125
3      -0.002
4       -0.01
5       0.012
6         0.8
7         2.1
8         2.8
9  3000
10  1400
11         0.85
12   0
==========
Data:
z(nm),I(A)
0,6.1438e-11,
-100000,7.1993e-11,
-200000,7.558e-11,
-300000,7.7051e-11,
-400000,9.4678e-11,
-500000,9.9352e-11,
-600000,8.2569e-11,
-700000,8.499e-11,
-800000,7.4233e-11,
-900000,6.5143e-11,
-1000000,6.3892e-11,
-1100000,6.2564e-11,
-1200000,6.0749e-11,
-1300000,5.7208e-11,
-1400000,5.8222e-11,
-1500000,5.0292e-11,
-1600000,4.7468e-11,
-1700000,4.5289e-11,
-1800000,4.3417e-11,
-1900000,3.9397e-11,
-2000000,3.8013e-11,
-2100000,3.8079e-11,
-2200000,3.7926e-11,
-2300000,3.8166e-11,
-2400000,3.852e-11,
-2500000,3.7557e-11,
-2600000,3.572e-11,
-2700000,3.434e-11,
-2800000,3.3714e-11,
-2900000,3.2501e-11,
-3000000,3.2173e-11,
-3100000,3.1882e-11,
-3200000,3.077e-11,
-3300000,2.9602e-11,
-3400000,2.9001e-11,
-3500000,2.8301e-11,
-3600000,2.7541e-11,
-3700000,2.6376e-11,
-3800000,2.599e-11,
-3900000,2.565e-11,
-4000000,2.5454e-11,
-4100000,2.4131e-11,
-4200000,2.4136e-11,
-4300000,2.3681e-11,
-4400000,2.3101e-11,
-4500000,2.2887e-11,
-4600000,2.2128e-11,
-4700000,2.1957e-11,
-4800000,2.1175e-11,
-4900000,2.0801e-11,
-5000000,2.0294e-11,
-5100000,2.0448e-11,
-5200000,1.9993e-11,
-5300000,1.9079e-11,
-5400000,1.9173e-11,
-5500000,1.9459e-11,
-5600000,1.9646e-11,
-5700000,1.9077e-11,
-5800000,1.8538e-11,
-5900000,1.7562e-11,
-6000000,1.7779e-11,
-5950000,1.7522e-11,
-5850000,1.8063e-11,
-5750000,1.8884e-11,
-5650000,1.9388e-11,
-5550000,1.9104e-11,
-5450000,2.0113e-11,
-5350000,1.963e-11,
-5250000,1.9315e-11,
-5150000,2.0108e-11,
-5050000,1.9876e-11,
-4950000,2.067e-11,
-4850000,2.087e-11,
-4750000,2.1422e-11,
-4650000,2.1885e-11,
-4550000,2.2448e-11,
-4450000,2.2542e-11,
-4350000,2.3006e-11,
-4250000,2.3818e-11,
-4150000,2.4265e-11,
-4050000,2.475e-11,
-3950000,2.4344e-11,
-3850000,2.604e-11,
-3750000,2.6221e-11,
-3650000,2.7069e-11,
-3550000,2.8186e-11,
-3450000,2.8146e-11,
-3350000,2.8775e-11,
-3250000,3.0111e-11,
-3150000,3.1439e-11,
-3050000,3.1716e-11,
-2950000,3.2212e-11,
-2850000,3.338e-11,
-2750000,3.4265e-11,
-2650000,3.5191e-11,
-2550000,3.6278e-11,
-2450000,3.7893e-11,
-2350000,3.8528e-11,
-2250000,3.7595e-11,
-2150000,3.7596e-11,
-2050000,3.7972e-11,
-1950000,3.7778e-11,
-1850000,3.9698e-11,
-1750000,4.3104e-11,
-1650000,4.6576e-11,
-1550000,4.7534e-11,
-1450000,4.9003e-11,
-1350000,4.795e-11,
-1250000,4.7531e-11,
-1150000,4.933e-11,
-1050000,5.1136e-11,
-950000,4.9957e-11,
-850000,6.1284e-11,
-750000,5.9541e-11,
-650000,6.3382e-11,
-550000,5.8413e-11,
-450000,6.7318e-11,
-350000,8.0308e-11,
-250000,7.0376e-11,
-150000,6.8432e-11,
-50000,5.8434e-11,
