General parameters:
Start time: 2023             11              9             23             58      20.891419
Finish time: 2023             11             10              0             23      15.144646
Dwell time (ms): 3750.000000
Source chamber pressure: Error-S
Differential chamber pressure: 7.97e-07
Sample chamber pressure: 1.82e-08
Example position (nm): -4663000.000000,-821000.000000,-750000.000000
Rotation angle (udeg): 84999960.000000
==========
Instrument status: 
0:Data Directory:/icon/data/2023_11_defect2_MoS2_5um_hbn_sub/
1:Sample:MoS2
2:Comments:no
3:PinholePlate:#C13
4:z_Zero:4200
5:Operator:djw77/nav31/kw570
==========
zscan inputs: 
z_sep:50000
z_range:0 -6000000
data_path:/icon/data/2023_11_defect2_MoS2_5um_hbn_sub/
example_pos:-4663000  -821000  -750000
N_dwell:250
sampling_period:15
make_plots:1
m1:0.98976
m2:-0.0073571
example_pos_norm_1:-4688000  -824000  -750000
example_pos_norm_2:-4670000  -844000  -750000
==========
Detector params:
Sampling period (ms): 15.000000
N dwell: 250.000000
Filament current (A): 1.540000
Filament emission (mA): 2.201112
Solenoid current (A): NaN
Solenoid shim current (A): NaN
Lens params:
0  685
1  300
2  125
3      -0.002
4       -0.01
5       0.012
6         0.8
7         2.1
8         2.8
9  3000
10  1400
11         0.85
12   0
==========
Data:
z(nm),I(A)
0,2.6463e-11,
-100000,2.6058e-11,
-200000,2.568e-11,
-300000,2.7094e-11,
-400000,2.9524e-11,
-500000,3.5405e-11,
-600000,4.3406e-11,
-700000,4.7534e-11,
-800000,4.7912e-11,
-900000,4.3244e-11,
-1000000,3.6498e-11,
-1100000,3.1774e-11,
-1200000,2.9398e-11,
-1300000,2.7934e-11,
-1400000,2.7716e-11,
-1500000,2.9518e-11,
-1600000,2.979e-11,
-1700000,2.856e-11,
-1800000,2.7587e-11,
-1900000,2.591e-11,
-2000000,2.5086e-11,
-2100000,2.4414e-11,
-2200000,2.4497e-11,
-2300000,2.4174e-11,
-2400000,2.4382e-11,
-2500000,2.44e-11,
-2600000,2.3572e-11,
-2700000,2.352e-11,
-2800000,2.2801e-11,
-2900000,2.2152e-11,
-3000000,2.0981e-11,
-3100000,2.089e-11,
-3200000,1.9823e-11,
-3300000,1.8476e-11,
-3400000,1.8384e-11,
-3500000,1.7992e-11,
-3600000,1.7542e-11,
-3700000,1.6534e-11,
-3800000,1.5485e-11,
-3900000,1.5696e-11,
-4000000,1.4599e-11,
-4100000,1.4552e-11,
-4200000,1.4931e-11,
-4300000,1.4039e-11,
-4400000,1.3884e-11,
-4500000,1.3782e-11,
-4600000,1.377e-11,
-4700000,1.37e-11,
-4800000,1.3554e-11,
-4900000,1.2614e-11,
-5000000,1.2646e-11,
-5100000,1.2545e-11,
-5200000,1.2047e-11,
-5300000,1.2133e-11,
-5400000,1.1854e-11,
-5500000,1.2758e-11,
-5600000,1.2968e-11,
-5700000,1.142e-11,
-5800000,1.1166e-11,
-5900000,1.1471e-11,
-6000000,1.1236e-11,
-5950000,1.1419e-11,
-5850000,1.1368e-11,
-5750000,1.1577e-11,
-5650000,1.2136e-11,
-5550000,1.2643e-11,
-5450000,1.2752e-11,
-5350000,1.2332e-11,
-5250000,1.2317e-11,
-5150000,1.2966e-11,
-5050000,1.2389e-11,
-4950000,1.2898e-11,
-4850000,1.2582e-11,
-4750000,1.2759e-11,
-4650000,1.351e-11,
-4550000,1.319e-11,
-4450000,1.3738e-11,
-4350000,1.3992e-11,
-4250000,1.4585e-11,
-4150000,1.445e-11,
-4050000,1.5054e-11,
-3950000,1.4864e-11,
-3850000,1.5792e-11,
-3750000,1.6548e-11,
-3650000,1.7177e-11,
-3550000,1.8268e-11,
-3450000,1.8514e-11,
-3350000,1.8822e-11,
-3250000,2.0049e-11,
-3150000,2.1265e-11,
-3050000,2.1504e-11,
-2950000,2.1785e-11,
-2850000,2.2791e-11,
-2750000,2.3377e-11,
-2650000,2.3075e-11,
-2550000,2.4006e-11,
-2450000,2.4836e-11,
-2350000,2.4119e-11,
-2250000,2.3829e-11,
-2150000,2.4057e-11,
-2050000,2.3511e-11,
-1950000,2.552e-11,
-1850000,2.5918e-11,
-1750000,2.7792e-11,
-1650000,2.9214e-11,
-1550000,2.8919e-11,
-1450000,2.8313e-11,
-1350000,2.8173e-11,
-1250000,2.7691e-11,
-1150000,2.9516e-11,
-1050000,3.3708e-11,
-950000,3.997e-11,
-850000,4.6326e-11,
-750000,4.88e-11,
-650000,4.6033e-11,
-550000,3.8579e-11,
-450000,3.1994e-11,
-350000,2.8032e-11,
-250000,2.6271e-11,
-150000,2.5652e-11,
-50000,2.6287e-11,
