General parameters:
Start time: 2023             11             17             13             33      57.422892
Finish time: 2023             11             17             13             58      51.310501
Dwell time (ms): 3750.000000
Source chamber pressure: Error-S
Differential chamber pressure: 8.03e-07
Sample chamber pressure: 1.64e-08
Example position (nm): -4368000.000000,252000.000000,-750000.000000
Rotation angle (udeg): 132499965.000000
==========
Instrument status: 
0:Data Directory:/icon/data/2023_11_defect2_MoS2_5um_hbn_sub/
1:Sample:MoS2
2:Comments:no
3:PinholePlate:#C13
4:z_Zero:4200
5:Operator:djw77/nav31/kw570
==========
zscan inputs: 
z_sep:50000
z_range:0 -6000000
data_path:/icon/data/2023_11_defect2_MoS2_5um_hbn_sub/
example_pos:-4368000   252000  -750000
N_dwell:250
sampling_period:15
make_plots:1
m1:0.98976
m2:-0.0073571
example_pos_norm_1:-4385000   269000  -750000
example_pos_norm_2:-4392000   249000  -750000
==========
Detector params:
Sampling period (ms): 15.000000
N dwell: 250.000000
Filament current (A): 1.540000
Filament emission (mA): 2.436408
Solenoid current (A): NaN
Solenoid shim current (A): NaN
Lens params:
0  685
1  300
2  125
3      -0.002
4       -0.01
5       0.012
6         0.8
7         2.1
8         2.8
9  3000
10  1400
11         0.85
12   0
==========
Data:
z(nm),I(A)
0,1.1383e-10,
-100000,1.1326e-10,
-200000,1.1551e-10,
-300000,1.2442e-10,
-400000,1.3957e-10,
-500000,1.6556e-10,
-600000,1.8509e-10,
-700000,1.8213e-10,
-800000,1.5899e-10,
-900000,1.4191e-10,
-1000000,1.3327e-10,
-1100000,1.3049e-10,
-1200000,1.3273e-10,
-1300000,1.4276e-10,
-1400000,1.5618e-10,
-1500000,1.6285e-10,
-1600000,1.6068e-10,
-1700000,1.4905e-10,
-1800000,1.3423e-10,
-1900000,1.2298e-10,
-2000000,1.1974e-10,
-2100000,1.2524e-10,
-2200000,1.387e-10,
-2300000,1.5425e-10,
-2400000,1.6926e-10,
-2500000,1.6919e-10,
-2600000,1.5891e-10,
-2700000,1.4033e-10,
-2800000,1.2178e-10,
-2900000,1.0807e-10,
-3000000,9.955e-11,
-3100000,9.6408e-11,
-3200000,9.5478e-11,
-3300000,9.4138e-11,
-3400000,9.5009e-11,
-3500000,9.4795e-11,
-3600000,9.3779e-11,
-3700000,9.0664e-11,
-3800000,8.7312e-11,
-3900000,8.061e-11,
-4000000,7.7855e-11,
-4100000,7.6446e-11,
-4200000,7.2197e-11,
-4300000,7.1209e-11,
-4400000,6.9674e-11,
-4500000,6.8217e-11,
-4600000,6.7198e-11,
-4700000,6.5094e-11,
-4800000,6.4835e-11,
-4900000,6.3565e-11,
-5000000,6.3101e-11,
-5100000,6.1946e-11,
-5200000,6.1069e-11,
-5300000,6.0186e-11,
-5400000,5.9992e-11,
-5500000,6.0066e-11,
-5600000,5.9428e-11,
-5700000,5.8504e-11,
-5800000,5.7396e-11,
-5900000,5.6893e-11,
-6000000,5.6069e-11,
-5950000,5.5724e-11,
-5850000,5.7031e-11,
-5750000,5.8144e-11,
-5650000,5.9368e-11,
-5550000,6.0529e-11,
-5450000,6.07e-11,
-5350000,6.0134e-11,
-5250000,6.1133e-11,
-5150000,6.0736e-11,
-5050000,6.3277e-11,
-4950000,6.3421e-11,
-4850000,6.5074e-11,
-4750000,6.6101e-11,
-4650000,6.7654e-11,
-4550000,6.8243e-11,
-4450000,6.9363e-11,
-4350000,7.0799e-11,
-4250000,7.2921e-11,
-4150000,7.3328e-11,
-4050000,7.6449e-11,
-3950000,8.0262e-11,
-3850000,8.3273e-11,
-3750000,8.9255e-11,
-3650000,9.3448e-11,
-3550000,9.4612e-11,
-3450000,9.6109e-11,
-3350000,9.4428e-11,
-3250000,9.4697e-11,
-3150000,9.5986e-11,
-3050000,9.901e-11,
-2950000,1.046e-10,
-2850000,1.1482e-10,
-2750000,1.325e-10,
-2650000,1.5264e-10,
-2550000,1.6847e-10,
-2450000,1.7402e-10,
-2350000,1.6466e-10,
-2250000,1.4876e-10,
-2150000,1.3039e-10,
-2050000,1.2371e-10,
-1950000,1.1984e-10,
-1850000,1.2695e-10,
-1750000,1.4216e-10,
-1650000,1.5746e-10,
-1550000,1.6359e-10,
-1450000,1.6135e-10,
-1350000,1.4957e-10,
-1250000,1.3852e-10,
-1150000,1.3164e-10,
-1050000,1.3213e-10,
-950000,1.3835e-10,
-850000,1.5058e-10,
-750000,1.7171e-10,
-650000,1.8567e-10,
-550000,1.7926e-10,
-450000,1.5244e-10,
-350000,1.3261e-10,
-250000,1.1913e-10,
-150000,1.1379e-10,
-50000,1.1421e-10,
