General parameters:
Start time: 2023             11             15             15             22      59.099101
Finish time: 2023             11             15             15             47      54.227188
Dwell time (ms): 3750.000000
Source chamber pressure: Error-S
Differential chamber pressure: 8.01e-07
Sample chamber pressure: 1.66e-08
Example position (nm): -4627000.000000,-1054000.000000,-750000.000000
Rotation angle (udeg): 75000125.000000
==========
Instrument status: 
0:Data Directory:/icon/data/2023_11_defect2_MoS2_5um_hbn_sub/
1:Sample:MoS2
2:Comments:no
3:PinholePlate:#C13
4:z_Zero:4200
5:Operator:djw77/nav31/kw570
==========
zscan inputs: 
z_sep:50000
z_range:0 -6000000
data_path:/icon/data/2023_11_defect2_MoS2_5um_hbn_sub/
example_pos:-4627000 -1054000  -750000
N_dwell:250
sampling_period:15
make_plots:1
m1:0.98976
m2:-0.0073571
example_pos_norm_1:-4652000 -1062000  -750000
example_pos_norm_2:-4635000 -1077000  -750000
==========
Detector params:
Sampling period (ms): 15.000000
N dwell: 250.000000
Filament current (A): 1.540000
Filament emission (mA): 2.341674
Solenoid current (A): NaN
Solenoid shim current (A): NaN
Lens params:
0  685
1  300
2  125
3      -0.002
4       -0.01
5       0.012
6         0.8
7         2.1
8         2.8
9  3000
10  1400
11         0.85
12   0
==========
Data:
z(nm),I(A)
0,1.006e-10,
-100000,1.0532e-10,
-200000,9.874e-11,
-300000,1.0165e-10,
-400000,1.0346e-10,
-500000,1.2565e-10,
-600000,1.6387e-10,
-700000,1.8452e-10,
-800000,1.8261e-10,
-900000,1.5805e-10,
-1000000,1.2588e-10,
-1100000,1.0832e-10,
-1200000,1.0047e-10,
-1300000,9.9747e-11,
-1400000,1.0738e-10,
-1500000,1.2127e-10,
-1600000,1.2877e-10,
-1700000,1.2816e-10,
-1800000,1.1703e-10,
-1900000,1.0238e-10,
-2000000,9.1592e-11,
-2100000,8.8966e-11,
-2200000,9.5838e-11,
-2300000,1.091e-10,
-2400000,1.2994e-10,
-2500000,1.4994e-10,
-2600000,1.5627e-10,
-2700000,1.5019e-10,
-2800000,1.3461e-10,
-2900000,1.1162e-10,
-3000000,9.3434e-11,
-3100000,8.2954e-11,
-3200000,7.9665e-11,
-3300000,7.9042e-11,
-3400000,8.1346e-11,
-3500000,8.7372e-11,
-3600000,9.1962e-11,
-3700000,9.389e-11,
-3800000,9.1294e-11,
-3900000,8.7555e-11,
-4000000,7.694e-11,
-4100000,7.2316e-11,
-4200000,6.5449e-11,
-4300000,6.0472e-11,
-4400000,5.6968e-11,
-4500000,5.4892e-11,
-4600000,5.3922e-11,
-4700000,5.2498e-11,
-4800000,5.137e-11,
-4900000,5.1786e-11,
-5000000,5.0566e-11,
-5100000,5.0319e-11,
-5200000,4.8046e-11,
-5300000,4.7661e-11,
-5400000,4.5557e-11,
-5500000,4.4206e-11,
-5600000,4.3986e-11,
-5700000,4.1421e-11,
-5800000,4.2354e-11,
-5900000,4.2794e-11,
-6000000,4.2227e-11,
-5950000,4.2314e-11,
-5850000,4.2543e-11,
-5750000,4.292e-11,
-5650000,4.2234e-11,
-5550000,4.5104e-11,
-5450000,4.3782e-11,
-5350000,4.5658e-11,
-5250000,4.704e-11,
-5150000,4.868e-11,
-5050000,4.9064e-11,
-4950000,4.9635e-11,
-4850000,5.02e-11,
-4750000,5.0838e-11,
-4650000,5.2018e-11,
-4550000,5.4073e-11,
-4450000,5.528e-11,
-4350000,5.7982e-11,
-4250000,6.2506e-11,
-4150000,6.9369e-11,
-4050000,7.2789e-11,
-3950000,8.1164e-11,
-3850000,8.952e-11,
-3750000,9.3297e-11,
-3650000,9.4246e-11,
-3550000,9.1158e-11,
-3450000,8.5386e-11,
-3350000,8.111e-11,
-3250000,7.8919e-11,
-3150000,8.1128e-11,
-3050000,8.7486e-11,
-2950000,1.0198e-10,
-2850000,1.2472e-10,
-2750000,1.4564e-10,
-2650000,1.5663e-10,
-2550000,1.5696e-10,
-2450000,1.4292e-10,
-2350000,1.2022e-10,
-2250000,1.0115e-10,
-2150000,9.241e-11,
-2050000,8.9421e-11,
-1950000,9.5777e-11,
-1850000,1.1267e-10,
-1750000,1.2606e-10,
-1650000,1.3138e-10,
-1550000,1.2804e-10,
-1450000,1.1549e-10,
-1350000,1.0196e-10,
-1250000,9.7215e-11,
-1150000,1.0099e-10,
-1050000,1.1435e-10,
-950000,1.3765e-10,
-850000,1.7141e-10,
-750000,1.861e-10,
-650000,1.7862e-10,
-550000,1.4862e-10,
-450000,1.1242e-10,
-350000,9.7719e-11,
-250000,9.5421e-11,
-150000,9.893e-11,
-50000,9.9252e-11,
