General parameters:
Start time: 2023             11             14             12             58      53.899044
Finish time: 2023             11             14             13             23      50.328493
Dwell time (ms): 3750.000000
Source chamber pressure: Error-S
Differential chamber pressure: 7.99e-07
Sample chamber pressure: 1.69e-08
Example position (nm): -4471000.000000,106000.000000,-750000.000000
Rotation angle (udeg): 124999960.000000
==========
Instrument status: 
0:Data Directory:/icon/data/2023_11_defect2_MoS2_5um_hbn_sub/
1:Sample:MoS2
2:Comments:no
3:PinholePlate:#C13
4:z_Zero:4200
5:Operator:djw77/nav31/kw570
==========
zscan inputs: 
z_sep:50000
z_range:0 -6000000
data_path:/icon/data/2023_11_defect2_MoS2_5um_hbn_sub/
example_pos:-4471000   106000  -750000
N_dwell:250
sampling_period:15
make_plots:1
m1:0.98976
m2:-0.0073571
example_pos_norm_1:-4491000   121000  -750000
example_pos_norm_2:-4498000    99000  -750000
==========
Detector params:
Sampling period (ms): 15.000000
N dwell: 250.000000
Filament current (A): 1.540000
Filament emission (mA): 2.313288
Solenoid current (A): NaN
Solenoid shim current (A): NaN
Lens params:
0  685
1  300
2  125
3      -0.002
4       -0.01
5       0.012
6         0.8
7         2.1
8         2.8
9  3000
10  1400
11         0.85
12   0
==========
Data:
z(nm),I(A)
0,3.8405e-11,
-100000,3.8362e-11,
-200000,3.9565e-11,
-300000,4.222e-11,
-400000,4.713e-11,
-500000,5.7374e-11,
-600000,6.4995e-11,
-700000,6.6258e-11,
-800000,5.9747e-11,
-900000,5.1317e-11,
-1000000,4.7655e-11,
-1100000,4.5534e-11,
-1200000,4.7003e-11,
-1300000,5.0256e-11,
-1400000,5.5261e-11,
-1500000,5.8368e-11,
-1600000,5.6702e-11,
-1700000,5.2941e-11,
-1800000,4.6538e-11,
-1900000,4.2531e-11,
-2000000,4.0317e-11,
-2100000,4.1952e-11,
-2200000,4.4938e-11,
-2300000,4.8787e-11,
-2400000,5.2292e-11,
-2500000,5.1164e-11,
-2600000,4.7375e-11,
-2700000,4.2389e-11,
-2800000,3.8328e-11,
-2900000,3.5218e-11,
-3000000,3.296e-11,
-3100000,3.169e-11,
-3200000,3.128e-11,
-3300000,3.062e-11,
-3400000,2.9934e-11,
-3500000,2.8988e-11,
-3600000,2.896e-11,
-3700000,2.8066e-11,
-3800000,2.676e-11,
-3900000,2.5843e-11,
-4000000,2.5567e-11,
-4100000,2.4724e-11,
-4200000,2.463e-11,
-4300000,2.3669e-11,
-4400000,2.3708e-11,
-4500000,2.3032e-11,
-4600000,2.2905e-11,
-4700000,2.1988e-11,
-4800000,2.1811e-11,
-4900000,2.1224e-11,
-5000000,2.0219e-11,
-5100000,2.0529e-11,
-5200000,1.9625e-11,
-5300000,1.9719e-11,
-5400000,1.9846e-11,
-5500000,2.0439e-11,
-5600000,1.9848e-11,
-5700000,1.9594e-11,
-5800000,1.8622e-11,
-5900000,1.8461e-11,
-6000000,1.8514e-11,
-5950000,1.8652e-11,
-5850000,1.889e-11,
-5750000,1.921e-11,
-5650000,2e-11,
-5550000,2.0407e-11,
-5450000,2.0459e-11,
-5350000,2.0258e-11,
-5250000,1.9822e-11,
-5150000,2.0367e-11,
-5050000,2.0637e-11,
-4950000,2.1016e-11,
-4850000,2.1577e-11,
-4750000,2.1663e-11,
-4650000,2.2264e-11,
-4550000,2.2708e-11,
-4450000,2.3476e-11,
-4350000,2.3553e-11,
-4250000,2.4439e-11,
-4150000,2.4412e-11,
-4050000,2.5313e-11,
-3950000,2.5548e-11,
-3850000,2.6321e-11,
-3750000,2.6778e-11,
-3650000,2.7643e-11,
-3550000,2.8532e-11,
-3450000,3.0444e-11,
-3350000,3.0091e-11,
-3250000,3.1023e-11,
-3150000,3.1503e-11,
-3050000,3.3194e-11,
-2950000,3.4264e-11,
-2850000,3.6757e-11,
-2750000,4.0791e-11,
-2650000,4.5271e-11,
-2550000,5.0296e-11,
-2450000,5.2546e-11,
-2350000,5.1213e-11,
-2250000,4.6553e-11,
-2150000,4.3258e-11,
-2050000,4.0948e-11,
-1950000,4.081e-11,
-1850000,4.4682e-11,
-1750000,5.0444e-11,
-1650000,5.4933e-11,
-1550000,5.7594e-11,
-1450000,5.7e-11,
-1350000,5.3095e-11,
-1250000,4.8537e-11,
-1150000,4.5612e-11,
-1050000,4.5865e-11,
-950000,4.9132e-11,
-850000,5.5411e-11,
-750000,6.4158e-11,
-650000,6.6663e-11,
-550000,6.2247e-11,
-450000,5.1416e-11,
-350000,4.4307e-11,
-250000,4.0536e-11,
-150000,3.8948e-11,
-50000,3.8086e-11,
