General parameters:
Start time: 2023             11             10             14             54      45.535757
Finish time: 2023             11             10             15             19      40.181399
Dwell time (ms): 3750.000000
Source chamber pressure: Error-S
Differential chamber pressure: 7.97e-07
Sample chamber pressure: 1.82e-08
Example position (nm): -4607000.000000,-1054000.000000,-750000.000000
Rotation angle (udeg): 74999995.000000
==========
Instrument status: 
0:Data Directory:/icon/data/2023_11_defect2_MoS2_5um_hbn_sub/
1:Sample:MoS2
2:Comments:no
3:PinholePlate:#C13
4:z_Zero:4200
5:Operator:djw77/nav31/kw570
==========
zscan inputs: 
z_sep:50000
z_range:0 -6000000
data_path:/icon/data/2023_11_defect2_MoS2_5um_hbn_sub/
example_pos:-4607000 -1054000  -750000
N_dwell:250
sampling_period:15
make_plots:1
m1:0.98976
m2:-0.0073571
example_pos_norm_1:-4630000 -1062000  -750000
example_pos_norm_2:-4592000 -1077000  -750000
==========
Detector params:
Sampling period (ms): 15.000000
N dwell: 250.000000
Filament current (A): 1.540000
Filament emission (mA): 2.224368
Solenoid current (A): NaN
Solenoid shim current (A): NaN
Lens params:
0  685
1  300
2  125
3      -0.002
4       -0.01
5       0.012
6         0.8
7         2.1
8         2.8
9  3000
10  1400
11         0.85
12   0
==========
Data:
z(nm),I(A)
0,2.9802e-11,
-100000,2.9728e-11,
-200000,2.8243e-11,
-300000,2.9476e-11,
-400000,3.1903e-11,
-500000,3.8141e-11,
-600000,4.8073e-11,
-700000,5.4536e-11,
-800000,5.5036e-11,
-900000,4.9851e-11,
-1000000,4.1312e-11,
-1100000,3.4568e-11,
-1200000,3.2103e-11,
-1300000,3.1919e-11,
-1400000,3.3759e-11,
-1500000,3.7153e-11,
-1600000,3.9284e-11,
-1700000,3.9531e-11,
-1800000,3.7573e-11,
-1900000,3.312e-11,
-2000000,2.9718e-11,
-2100000,2.797e-11,
-2200000,2.99e-11,
-2300000,3.3399e-11,
-2400000,3.9168e-11,
-2500000,4.3528e-11,
-2600000,4.5323e-11,
-2700000,4.473e-11,
-2800000,4.0643e-11,
-2900000,3.5282e-11,
-3000000,3.0458e-11,
-3100000,2.6867e-11,
-3200000,2.453e-11,
-3300000,2.4652e-11,
-3400000,2.4828e-11,
-3500000,2.5897e-11,
-3600000,2.7548e-11,
-3700000,2.7572e-11,
-3800000,2.6338e-11,
-3900000,2.5491e-11,
-4000000,2.2705e-11,
-4100000,2.1446e-11,
-4200000,2.0464e-11,
-4300000,1.8301e-11,
-4400000,1.7876e-11,
-4500000,1.7136e-11,
-4600000,1.662e-11,
-4700000,1.6125e-11,
-4800000,1.5984e-11,
-4900000,1.5794e-11,
-5000000,1.5848e-11,
-5100000,1.5764e-11,
-5200000,1.4368e-11,
-5300000,1.4301e-11,
-5400000,1.3976e-11,
-5500000,1.2769e-11,
-5600000,1.2902e-11,
-5700000,1.2766e-11,
-5800000,1.2936e-11,
-5900000,1.3118e-11,
-6000000,1.294e-11,
-5950000,1.3414e-11,
-5850000,1.2917e-11,
-5750000,1.2995e-11,
-5650000,1.2297e-11,
-5550000,1.2673e-11,
-5450000,1.2894e-11,
-5350000,1.3932e-11,
-5250000,1.4437e-11,
-5150000,1.5024e-11,
-5050000,1.5381e-11,
-4950000,1.5127e-11,
-4850000,1.562e-11,
-4750000,1.5948e-11,
-4650000,1.612e-11,
-4550000,1.6114e-11,
-4450000,1.7483e-11,
-4350000,1.7889e-11,
-4250000,1.9582e-11,
-4150000,2.0893e-11,
-4050000,2.2285e-11,
-3950000,2.4393e-11,
-3850000,2.6077e-11,
-3750000,2.7644e-11,
-3650000,2.7845e-11,
-3550000,2.7191e-11,
-3450000,2.6462e-11,
-3350000,2.4964e-11,
-3250000,2.5408e-11,
-3150000,2.5664e-11,
-3050000,2.8385e-11,
-2950000,3.248e-11,
-2850000,3.7725e-11,
-2750000,4.3467e-11,
-2650000,4.6212e-11,
-2550000,4.499e-11,
-2450000,4.036e-11,
-2350000,3.5579e-11,
-2250000,3.113e-11,
-2150000,2.8922e-11,
-2050000,2.8848e-11,
-1950000,3.1152e-11,
-1850000,3.4754e-11,
-1750000,3.8055e-11,
-1650000,3.993e-11,
-1550000,3.8374e-11,
-1450000,3.5032e-11,
-1350000,3.2267e-11,
-1250000,3.1722e-11,
-1150000,3.2893e-11,
-1050000,3.7638e-11,
-950000,4.5019e-11,
-850000,5.2727e-11,
-750000,5.5489e-11,
-650000,5.233e-11,
-550000,4.2848e-11,
-450000,3.4386e-11,
-350000,3.034e-11,
-250000,2.8838e-11,
-150000,2.8587e-11,
-50000,2.9446e-11,
