General parameters:
Start time: 2023             11             12             23             13      21.392859
Finish time: 2023             11             12             23             38      16.864005
Dwell time (ms): 3750.000000
Source chamber pressure: Error-S
Differential chamber pressure: 7.98e-07
Sample chamber pressure: 1.84e-08
Example position (nm): -4447000.000000,-1390000.000000,-750000.000000
Rotation angle (udeg): 60000015.000000
==========
Instrument status: 
0:Data Directory:/icon/data/2023_11_defect2_MoS2_5um_hbn_sub/
1:Sample:MoS2
2:Comments:no
3:PinholePlate:#C13
4:z_Zero:4200
5:Operator:djw77/nav31/kw570
==========
zscan inputs: 
z_sep:50000
z_range:0 -6000000
data_path:/icon/data/2023_11_defect2_MoS2_5um_hbn_sub/
example_pos:-4447000 -1390000  -750000
N_dwell:250
sampling_period:15
make_plots:1
m1:0.98976
m2:-0.0073571
example_pos_norm_1:-4464000 -1406000  -750000
example_pos_norm_2:-4432000 -1416000  -750000
==========
Detector params:
Sampling period (ms): 15.000000
N dwell: 250.000000
Filament current (A): 1.540000
Filament emission (mA): 2.251386
Solenoid current (A): NaN
Solenoid shim current (A): NaN
Lens params:
0  685
1  300
2  125
3      -0.002
4       -0.01
5       0.012
6         0.8
7         2.1
8         2.8
9  3000
10  1400
11         0.85
12   0
==========
Data:
z(nm),I(A)
0,3.0022e-11,
-100000,3.0996e-11,
-200000,3.115e-11,
-300000,3.3365e-11,
-400000,3.663e-11,
-500000,4.399e-11,
-600000,5.6847e-11,
-700000,6.5644e-11,
-800000,6.7122e-11,
-900000,6.0051e-11,
-1000000,4.8582e-11,
-1100000,4.107e-11,
-1200000,3.6732e-11,
-1300000,3.5071e-11,
-1400000,3.5175e-11,
-1500000,3.5808e-11,
-1600000,3.6528e-11,
-1700000,3.6509e-11,
-1800000,3.4666e-11,
-1900000,3.121e-11,
-2000000,3.0652e-11,
-2100000,3.0227e-11,
-2200000,2.9884e-11,
-2300000,2.9229e-11,
-2400000,3.0266e-11,
-2500000,3.0111e-11,
-2600000,2.9625e-11,
-2700000,2.9054e-11,
-2800000,2.8584e-11,
-2900000,2.8299e-11,
-3000000,2.9299e-11,
-3100000,2.8813e-11,
-3200000,2.9361e-11,
-3300000,2.9221e-11,
-3400000,2.8692e-11,
-3500000,2.7038e-11,
-3600000,2.6016e-11,
-3700000,2.4264e-11,
-3800000,2.2836e-11,
-3900000,2.1732e-11,
-4000000,2.1443e-11,
-4100000,2.127e-11,
-4200000,2.0372e-11,
-4300000,2.0648e-11,
-4400000,2.02e-11,
-4500000,1.9733e-11,
-4600000,1.9754e-11,
-4700000,1.9718e-11,
-4800000,1.8748e-11,
-4900000,1.8522e-11,
-5000000,1.7951e-11,
-5100000,1.7472e-11,
-5200000,1.7013e-11,
-5300000,1.6972e-11,
-5400000,1.6396e-11,
-5500000,1.465e-11,
-5600000,1.384e-11,
-5700000,1.5636e-11,
-5800000,1.5428e-11,
-5900000,1.5664e-11,
-6000000,1.4615e-11,
-5950000,1.5074e-11,
-5850000,1.5761e-11,
-5750000,1.5917e-11,
-5650000,1.4783e-11,
-5550000,1.4055e-11,
-5450000,1.5996e-11,
-5350000,1.6548e-11,
-5250000,1.6565e-11,
-5150000,1.7162e-11,
-5050000,1.7946e-11,
-4950000,1.7888e-11,
-4850000,1.8626e-11,
-4750000,1.8792e-11,
-4650000,1.9484e-11,
-4550000,1.9461e-11,
-4450000,2.0305e-11,
-4350000,2.0556e-11,
-4250000,2.0375e-11,
-4150000,2.0282e-11,
-4050000,2.1114e-11,
-3950000,2.1232e-11,
-3850000,2.2098e-11,
-3750000,2.398e-11,
-3650000,2.484e-11,
-3550000,2.6158e-11,
-3450000,2.8468e-11,
-3350000,2.8984e-11,
-3250000,2.8978e-11,
-3150000,2.9228e-11,
-3050000,2.8314e-11,
-2950000,2.8475e-11,
-2850000,2.758e-11,
-2750000,2.8159e-11,
-2650000,2.8947e-11,
-2550000,2.9494e-11,
-2450000,2.988e-11,
-2350000,3.0712e-11,
-2250000,2.9206e-11,
-2150000,2.9464e-11,
-2050000,2.9664e-11,
-1950000,3.0549e-11,
-1850000,3.2596e-11,
-1750000,3.4806e-11,
-1650000,3.6283e-11,
-1550000,3.692e-11,
-1450000,3.5477e-11,
-1350000,3.4604e-11,
-1250000,3.5255e-11,
-1150000,3.8302e-11,
-1050000,4.475e-11,
-950000,5.3909e-11,
-850000,6.3234e-11,
-750000,6.6161e-11,
-650000,6.2382e-11,
-550000,5.0202e-11,
-450000,4.0166e-11,
-350000,3.4128e-11,
-250000,3.146e-11,
-150000,3.0763e-11,
-50000,3.114e-11,
